Length [m]	OTDR [V]	Brillouin intensity [V]	Fitted Frequency [GHz]	Temperature [”]	Compensated Strain [レュ]	Uncompensated Strain [レュ]
0.51	0.007209	0.042976	10.508395	-149.322013	2170.113032	-1685.316766
1.02	0.007317	0.046750	10.481352	-125.889223	1007.009945	-2280.256191
1.53	0.007255	0.049933	10.461751	-91.366230	-239.767453	-2711.487983
2.04	0.007314	0.052621	10.449543	-55.144933	-1355.106162	-2980.047393
2.55	0.007268	0.054832	10.441258	-31.232102	-2096.660143	-3162.327983
3.06	0.007218	0.056692	10.437180	-18.394935	-2486.215797	-3252.041281
3.57	0.007187	0.058233	10.435532	-21.995068	-2441.351751	-3288.298992
4.08	0.007179	0.059522	10.434705	-22.297099	-2453.472837	-3306.493546
4.59	0.007154	0.060563	10.434825	-11.857144	-2691.022174	-3303.846590
5.10	0.007198	0.061418	10.434827	9.279482	-3177.548677	-3303.816636
5.61	0.007206	0.062074	10.434785	25.026280	-3540.992087	-3304.730011
6.12	0.007221	0.062563	10.434224	32.953244	-3736.415943	-3317.081030
6.63	0.007187	0.062872	10.433827	23.521408	-3528.452220	-3325.813009
7.14	0.007173	0.063091	10.433968	10.860374	-3233.745107	-3322.708576
7.65	0.007141	0.063230	10.433755	1.327360	-3019.196354	-3327.380761
8.16	0.007155	0.063353	10.434452	7.115692	-3136.368438	-3312.048328
8.67	0.007177	0.063447	10.435600	20.772845	-3424.279753	-3286.796871
9.18	0.007241	0.063528	10.435593	39.575233	-3857.277532	-3286.962119
9.69	0.007239	0.063517	10.435201	49.606030	-4097.223375	-3295.585734
10.20	0.007241	0.063452	10.435153	51.817650	-4149.232157	-3296.633165
10.71	0.007183	0.063333	10.435195	44.061518	-3969.711898	-3295.701445
11.22	0.007151	0.063230	10.434282	40.411166	-3906.736806	-3315.785670
11.73	0.007118	0.063162	10.433900	41.169790	-3933.021816	-3324.200785
12.24	0.007143	0.063178	10.433234	50.946856	-4173.445523	-3338.851797
12.75	0.007164	0.063232	10.432354	56.294374	-4316.840814	-3358.213466
13.26	0.007209	0.063319	10.432871	58.131306	-4347.193606	-3346.830753
13.77	0.007194	0.063348	10.434084	49.192731	-4113.460419	-3320.149777
14.28	0.007174	0.063381	10.434609	41.346537	-3920.743740	-3308.607547
14.79	0.007120	0.063404	10.435050	33.150865	-3721.904710	-3298.899231
15.30	0.007106	0.063461	10.434792	30.614431	-3669.476959	-3304.584583
15.81	0.007085	0.063526	10.434146	28.840537	-3643.527503	-3318.783446
16.32	0.007094	0.063602	10.433646	30.047711	-3682.858654	-3329.793801
16.83	0.007057	0.063618	10.433335	26.493660	-3608.221758	-3336.639176
17.34	0.006990	0.063589	10.433301	26.231042	-3602.952271	-3337.379292
17.85	0.006852	0.063489	10.434164	26.260880	-3583.737229	-3318.394765
18.36	0.006735	0.063390	10.434807	30.189974	-3659.340757	-3304.236077
18.87	0.006591	0.063287	10.434413	32.074315	-3711.814461	-3312.913589
19.38	0.006525	0.063231	10.435138	35.616708	-3776.650229	-3296.974872
19.89	0.006471	0.063199	10.435803	37.154520	-3796.699250	-3282.331578
20.40	0.006469	0.063186	10.436293	37.783867	-3799.887179	-3271.552998
20.91	0.006428	0.063145	10.436880	39.830306	-3833.454683	-3258.636344
21.42	0.006402	0.063093	10.437748	47.446370	-3988.750109	-3239.535586
21.93	0.006337	0.063000	10.437943	45.752090	-3945.251223	-3235.245722
22.44	0.006303	0.062925	10.438158	50.724325	-4054.767970	-3230.531153
22.95	0.006267	0.062857	10.437847	44.871166	-3927.184722	-3237.355837
23.46	0.006280	0.062818	10.438005	38.885240	-3785.767171	-3233.899279
23.97	0.006294	0.062794	10.438618	37.734085	-3745.111793	-3220.395618
24.48	0.006330	0.062788	10.438797	33.750031	-3649.290339	-3216.475185
24.99	0.006329	0.062771	10.437506	33.314379	-3669.034316	-3244.875347
25.50	0.006341	0.062759	10.437195	37.197942	-3765.586937	-3251.699897
26.02	0.006300	0.062750	10.437400	35.506564	-3721.930074	-3247.195639
26.53	0.006313	0.062773	10.437934	34.672649	-3690.417528	-3235.447240
27.04	0.006290	0.062806	10.437685	33.145259	-3661.007110	-3240.931784
27.55	0.006326	0.062877	10.437490	31.190655	-3620.514634	-3245.226128
28.06	0.006336	0.062936	10.437719	28.961923	-3563.930873	-3240.190356
28.57	0.006360	0.062973	10.437473	34.491317	-3696.875947	-3245.589750
29.08	0.006343	0.062968	10.437721	34.308109	-3686.952816	-3240.147006
29.59	0.006342	0.062944	10.437305	40.882420	-3847.880882	-3249.294658
30.10	0.006298	0.062886	10.436857	38.444017	-3802.066170	-3259.135598
30.61	0.006299	0.062858	10.437600	36.558203	-3741.538191	-3242.807437
31.12	0.006285	0.062839	10.437793	37.733247	-3764.135513	-3238.560853
31.63	0.006313	0.062865	10.438080	36.573928	-3730.816256	-3232.234430
32.14	0.006315	0.062883	10.438679	34.283971	-3664.302457	-3219.070745
32.65	0.006335	0.062884	10.439376	40.697761	-3795.850829	-3203.717762
33.16	0.006311	0.062857	10.439552	35.292709	-3667.376745	-3199.852890
33.67	0.006319	0.062820	10.440212	39.174135	-3741.507876	-3185.336395
34.18	0.006289	0.062759	10.440820	36.927419	-3675.764485	-3171.958113
34.69	0.006307	0.062751	10.440982	37.941220	-3695.366212	-3168.394665
35.20	0.006311	0.062746	10.441138	32.401291	-3564.247007	-3164.968302
35.71	0.006345	0.062803	10.441015	35.870925	-3646.944043	-3167.665236
36.22	0.006347	0.062812	10.441966	32.917174	-3557.019777	-3146.746169
36.73	0.006363	0.062838	10.441685	35.405433	-3620.776380	-3152.925313
37.24	0.006335	0.062795	10.441748	37.729564	-3672.835568	-3151.550235
37.75	0.006333	0.062762	10.442040	39.154997	-3698.904810	-3145.117357
38.26	0.006310	0.062684	10.442563	39.105773	-3685.709189	-3133.610885
38.77	0.006327	0.062643	10.442923	40.187190	-3702.299738	-3125.690321
39.28	0.006323	0.062568	10.442038	37.437949	-3659.419977	-3145.156484
39.79	0.006347	0.062522	10.441900	36.719887	-3646.072319	-3148.191708
40.30	0.006328	0.062449	10.441768	35.501567	-3621.082625	-3151.106472
40.81	0.006341	0.062402	10.441912	37.024691	-3652.815245	-3147.930750
41.32	0.006305	0.062345	10.442884	37.399537	-3639.028687	-3126.548602
41.83	0.006311	0.062320	10.443335	38.932109	-3663.920120	-3116.639582
42.34	0.006291	0.062302	10.443442	38.083843	-3641.925772	-3114.285762
42.85	0.006312	0.062318	10.444272	37.017593	-3598.236087	-3096.023286
43.36	0.006313	0.062335	10.444329	33.827664	-3523.472628	-3094.752312
43.87	0.006331	0.062347	10.444322	33.984800	-3527.267265	-3094.921564
44.38	0.006321	0.062341	10.444180	33.854128	-3527.538538	-3098.049686
44.89	0.006321	0.062346	10.444183	36.868650	-3596.846922	-3097.968718
45.40	0.006305	0.062347	10.445223	38.591291	-3612.511551	-3075.084552
45.91	0.006319	0.062368	10.445511	40.455600	-3648.785436	-3068.748838
46.42	0.006309	0.062384	10.445211	39.190251	-3626.582009	-3075.354139
46.93	0.006327	0.062416	10.444986	38.303737	-3611.363272	-3080.303479
47.44	0.006318	0.062418	10.445385	35.981023	-3548.693747	-3071.526175
47.95	0.006332	0.062426	10.446022	36.763855	-3552.037651	-3057.526087
48.46	0.006308	0.062418	10.446100	37.778021	-3573.567171	-3055.793563
48.97	0.006305	0.062420	10.446421	40.628080	-3631.770754	-3048.731037
49.48	0.006284	0.062415	10.451435	41.370523	-3533.236976	-2938.436196
49.99	0.006295	0.062380	10.474354	42.258793	-3025.096380	-2434.213140
50.50	0.006286	0.062262	10.510224	41.079968	-2170.680354	-1645.066669
51.01	0.006307	0.062025	10.541151	41.609220	-1469.601254	-964.682143
51.53	0.006299	0.061579	10.557922	42.470846	-1102.639257	-595.715148
52.04	0.006312	0.060930	10.562832	46.066789	-1072.170733	-487.689296
52.55	0.006299	0.060085	10.565364	47.349292	-1043.313466	-432.000287
53.06	0.006309	0.059129	10.566764	49.512771	-1060.828198	-401.200769
53.57	0.006290	0.058121	10.568012	46.699674	-967.280831	-373.737040
54.08	0.006307	0.057152	10.568779	43.498704	-875.914835	-356.871267
54.59	0.006295	0.056265	10.569201	37.662646	-731.827103	-347.576744
55.10	0.006316	0.055509	10.569469	34.979791	-663.891532	-341.684296
55.61	0.006299	0.054874	10.569827	32.213442	-591.948490	-333.802525
56.12	0.006312	0.054383	10.569762	32.679123	-604.166482	-335.231660
56.63	0.006295	0.054001	10.569633	32.018658	-591.936231	-338.068019
57.14	0.006304	0.053721	10.570135	32.230179	-585.243395	-327.038985
57.65	0.006280	0.053503	10.570678	29.951317	-520.250130	-315.082141
58.16	0.006289	0.053354	10.570923	28.110621	-472.230023	-309.694566
58.67	0.006272	0.053225	10.570928	25.160749	-404.208434	-309.583380
59.18	0.006291	0.053127	10.570855	24.533996	-391.460052	-311.185236
59.69	0.006280	0.053054	10.570458	23.358623	-373.553189	-319.913304
60.20	0.006294	0.053003	10.570581	25.391684	-417.518982	-317.209392
60.71	0.006278	0.052975	10.570994	24.393786	-385.042414	-308.142240
61.22	0.006290	0.052948	10.570767	25.581192	-417.607413	-313.132424
61.73	0.006270	0.052920	10.570442	23.273452	-371.975606	-320.278672
62.24	0.006294	0.052909	10.570788	22.657577	-349.809456	-312.658000
62.75	0.006271	0.052896	10.570923	21.212401	-313.426362	-309.685987
63.26	0.006292	0.052916	10.571012	22.316589	-336.788723	-307.725067
63.77	0.006277	0.052934	10.571248	22.471917	-334.937610	-302.548492
64.28	0.006320	0.052969	10.571423	25.226009	-394.295099	-298.693980
64.79	0.006393	0.052988	10.571150	25.309772	-402.521090	-304.701486
65.30	0.006687	0.052998	10.570805	26.192657	-430.803684	-312.293501
65.81	0.007267	0.052974	10.570826	24.395236	-388.950277	-311.838121
66.32	0.008325	0.052940	10.571529	24.068535	-365.201211	-296.357660
66.83	0.009722	0.052893	10.571666	22.580231	-327.788579	-293.350583
67.34	0.011214	0.052864	10.571365	23.749793	-361.661118	-299.979862
67.85	0.012313	0.052821	10.571614	23.006953	-338.796950	-294.481307
68.36	0.012797	0.052798	10.572182	24.601723	-362.429695	-282.005851
68.87	0.012584	0.052780	10.572274	23.444968	-333.669565	-279.972100
69.38	0.011887	0.052761	10.572297	23.081872	-324.784707	-279.469863
69.89	0.010916	0.052744	10.572289	21.012565	-277.322667	-279.634591
70.40	0.009950	0.052739	10.571589	20.876904	-290.344419	-295.035028
70.91	0.009085	0.052721	10.571362	19.824943	-271.363448	-300.028536
71.42	0.008431	0.052713	10.571736	21.357215	-298.028957	-291.818404
71.93	0.007915	0.052679	10.572225	21.261665	-284.551482	-281.060321
72.44	0.007575	0.052661	10.572594	22.459423	-303.600760	-272.930476
72.95	0.007306	0.052650	10.572989	21.421221	-270.601701	-264.249928
73.46	0.007134	0.052653	10.572881	21.672605	-278.867929	-266.615101
73.97	0.006986	0.052651	10.572715	20.285157	-250.768436	-270.277208
74.48	0.006903	0.052661	10.572234	21.393714	-287.380641	-280.859456
74.99	0.006808	0.052662	10.572173	20.666726	-272.048338	-282.197521
75.50	0.006763	0.052664	10.572534	22.755892	-311.799426	-274.241180
76.01	0.006701	0.052655	10.573038	22.337027	-290.556241	-263.174885
76.52	0.006674	0.052665	10.573155	23.571441	-316.256859	-260.584868
77.03	0.006640	0.052671	10.573117	22.423601	-290.716318	-261.426530
77.55	0.006638	0.052696	10.573405	22.514197	-286.149755	-255.081105
78.06	0.006613	0.052720	10.573191	21.650217	-271.209644	-259.801430
78.57	0.006610	0.052740	10.572973	22.350043	-292.345771	-264.596098
79.08	0.006591	0.052747	10.572896	22.380565	-294.832837	-266.298299
79.59	0.006602	0.052749	10.572828	23.340900	-318.494157	-267.781373
80.10	0.006580	0.052739	10.572709	22.478883	-301.397134	-270.401109
80.61	0.006599	0.052739	10.573234	23.065119	-302.775098	-258.842638
81.12	0.006589	0.052739	10.573756	22.001031	-266.261497	-247.377993
81.63	0.006609	0.052749	10.573797	22.586021	-278.770213	-246.464565
82.14	0.006605	0.052762	10.573958	21.899453	-259.258956	-242.928739
82.65	0.006630	0.052790	10.574276	23.459455	-287.824920	-235.922535
83.16	0.006616	0.052814	10.574373	23.776804	-292.895642	-233.790991
83.67	0.006629	0.052842	10.574483	25.165103	-322.321614	-231.375518
84.18	0.006615	0.052834	10.574493	24.482757	-306.374953	-231.147276
84.69	0.006628	0.052844	10.574221	25.080963	-326.431104	-237.143171
85.20	0.006613	0.052837	10.574107	23.805333	-299.687912	-239.643716
85.71	0.006636	0.052863	10.574078	24.432339	-314.803738	-240.294631
86.22	0.006633	0.052898	10.574621	23.945800	-291.074475	-228.342872
86.73	0.006621	0.052914	10.574820	24.821952	-306.655412	-223.966559
87.24	0.006577	0.052914	10.574480	24.219535	-300.624493	-231.441841
87.75	0.006517	0.052878	10.574152	25.062248	-327.585913	-238.655712
88.26	0.006425	0.052796	10.574260	23.532235	-289.875394	-236.280346
88.77	0.006373	0.052713	10.574753	23.655143	-281.322912	-225.423220
89.28	0.006391	0.052693	10.575132	22.300794	-241.415000	-217.094421
89.79	0.006419	0.052766	10.575171	23.775343	-274.471868	-216.248556
90.30	0.006453	0.052842	10.574175	23.578454	-292.889050	-238.140194
90.81	0.006470	0.052857	10.573748	24.665162	-327.762328	-247.543438
91.32	0.006491	0.052776	10.574101	23.592177	-294.911210	-239.767794
91.83	0.006520	0.052697	10.574303	24.437886	-309.740655	-235.343137
92.34	0.006520	0.052637	10.574490	23.507301	-283.991573	-231.215255
92.85	0.006520	0.052600	10.574512	24.186983	-299.125932	-230.727161
93.36	0.006520	0.052564	10.574273	22.869940	-274.324657	-235.989475
93.87	0.006525	0.052538	10.574649	23.315744	-275.910130	-227.712646
94.38	0.006550	0.052506	10.574694	22.302448	-251.548058	-226.724077
94.89	0.006550	0.052458	10.574639	22.868063	-265.833621	-227.931049
95.40	0.006553	0.052385	10.574813	21.721915	-235.439728	-224.105936
95.91	0.006561	0.052336	10.575015	22.490476	-248.477736	-219.666461
96.42	0.006561	0.052317	10.574732	21.017433	-221.105840	-225.902186
96.93	0.006561	0.052348	10.574674	22.516971	-256.957334	-227.173394
97.44	0.006561	0.052371	10.574545	21.493685	-236.375101	-230.009791
97.95	0.006562	0.052371	10.573467	22.353314	-281.021501	-253.721996
98.46	0.006562	0.052315	10.571620	19.481546	-257.525167	-294.368631
98.97	0.006562	0.052246	10.568908	14.943234	-215.590188	-354.021490
99.48	0.006562	0.052218	10.564607	-0.743309	46.305907	-448.651509
99.99	0.006562	0.052283	10.558676	-27.330606	521.544453	-579.138022
100.50	0.006562	0.052409	10.549949	-66.169757	1214.345547	-771.123705
101.01	0.006561	0.052594	10.540306	-104.456593	1873.291539	-983.275886
101.52	0.006555	0.052777	10.533563	-134.862038	2417.718272	-1131.604510
102.03	0.006555	0.052944	10.529659	-152.441117	2732.340971	-1217.495753
102.54	0.006555	0.053088	10.528021	-158.987752	2845.252580	-1253.543521
103.06	0.006555	0.053239	10.527262	-155.424582	2745.720242	-1270.245799
103.57	0.006555	0.053394	10.526536	-144.135161	2469.111577	-1286.204693
104.08	0.006555	0.053554	10.526041	-126.229925	2045.523157	-1297.094487
104.59	0.006555	0.053666	10.526570	-105.169678	1572.915973	-1285.463994
105.10	0.006555	0.053743	10.528806	-82.609397	1105.147832	-1236.278923
105.61	0.006555	0.053770	10.532382	-62.611386	727.296636	-1157.585410
106.12	0.006555	0.053771	10.535274	-44.636116	380.197055	-1093.974269
106.63	0.006561	0.053767	10.537303	-31.473125	123.978438	-1049.342066
107.14	0.006562	0.053798	10.538088	-20.001977	-121.964660	-1032.058427
107.65	0.006562	0.053849	10.539219	-12.035844	-279.262743	-1007.181003
108.16	0.006561	0.053937	10.539957	-4.579715	-433.871508	-990.937156
108.67	0.006557	0.054008	10.539697	-0.122704	-542.470836	-996.661042
109.18	0.006557	0.054082	10.540235	5.086506	-649.987649	-984.835070
109.69	0.006557	0.054149	10.540798	7.802820	-699.531279	-972.448631
110.20	0.006557	0.054222	10.540154	11.482193	-799.069046	-986.604443
110.71	0.006557	0.054299	10.540437	13.375915	-836.149896	-980.392620
111.22	0.006557	0.054398	10.540806	15.847078	-884.508844	-972.259274
111.73	0.006555	0.054492	10.541149	16.524724	-892.211658	-964.726881
112.24	0.006553	0.054578	10.541726	18.434645	-922.874680	-952.037380
112.75	0.006551	0.054620	10.541399	18.869644	-940.413941	-959.216212
113.26	0.006552	0.054634	10.541006	19.985978	-975.192836	-967.878867
113.77	0.006552	0.054604	10.540922	19.215833	-959.383886	-969.709915
114.28	0.006553	0.054564	10.541506	20.129093	-966.949447	-956.872861
114.79	0.006553	0.054514	10.541689	18.802677	-932.192562	-952.844282
115.30	0.006553	0.054470	10.541304	19.035821	-946.433837	-961.309614
115.81	0.006553	0.054416	10.541145	17.604180	-917.150409	-964.812781
116.32	0.006553	0.054377	10.541091	17.585839	-917.966501	-965.993993
116.83	0.006552	0.054349	10.541423	16.048834	-874.937950	-958.699267
117.34	0.006553	0.054351	10.541245	16.788793	-896.071210	-962.609961
117.85	0.006553	0.054368	10.540889	16.231928	-891.460159	-970.439407
118.36	0.006555	0.054400	10.540838	17.179001	-914.439370	-971.563033
118.87	0.006555	0.054439	10.540869	16.742788	-903.677743	-970.876077
119.38	0.006553	0.054474	10.540883	17.768416	-926.977685	-970.580694
119.89	0.006552	0.054506	10.541389	16.725478	-891.293750	-959.443025
120.40	0.006552	0.054541	10.541439	17.141473	-899.721346	-958.347492
120.91	0.006552	0.054543	10.541237	17.791455	-919.328848	-962.778507
121.42	0.006552	0.054537	10.541860	20.107015	-958.270798	-949.079059
121.93	0.006552	0.054503	10.542271	23.200597	-1019.997022	-940.029379
122.44	0.006552	0.054458	10.542029	28.073712	-1137.770554	-945.367521
122.95	0.006552	0.054416	10.541595	30.810965	-1210.773552	-954.899307
123.46	0.006552	0.054409	10.541650	29.692007	-1183.769084	-953.710308
123.97	0.006551	0.054430	10.541719	28.200292	-1147.817854	-952.172176
124.48	0.006547	0.054471	10.541887	26.582838	-1106.713796	-948.479783
124.99	0.006547	0.054497	10.542280	25.791065	-1079.427626	-939.837568
125.50	0.006546	0.054515	10.542070	24.717546	-1059.566127	-944.464528
126.01	0.006542	0.054492	10.541469	22.975775	-1033.325539	-957.680297
126.52	0.006540	0.054476	10.542389	22.865451	-1009.558951	-937.431778
127.03	0.006535	0.054450	10.543194	22.696555	-987.119747	-919.735617
127.54	0.006533	0.054451	10.542886	22.705091	-994.414758	-926.506934
128.05	0.006530	0.054440	10.542578	22.367470	-993.747307	-933.283927
128.56	0.006527	0.054436	10.542505	20.961245	-963.050606	-934.880881
129.08	0.006525	0.054397	10.542628	20.695824	-954.106921	-932.177719
129.59	0.006566	0.054351	10.542597	20.229789	-944.109120	-932.874228
130.10	0.006538	0.054287	10.542539	19.368765	-925.623587	-934.147633
130.61	0.006544	0.054235	10.542864	19.024293	-910.194568	-926.993932
131.12	0.006535	0.054191	10.543129	18.739503	-897.516387	-921.153714
131.63	0.006552	0.054168	10.543230	18.583074	-891.586292	-918.931941
132.14	0.006548	0.054145	10.543034	18.349048	-890.732366	-923.256246
132.65	0.006562	0.054137	10.543753	18.292426	-872.848864	-907.440420
133.16	0.006545	0.054123	10.544309	18.203461	-857.980103	-895.210582
133.67	0.006553	0.054124	10.543773	18.208737	-870.458299	-906.997729
134.18	0.006534	0.054123	10.543292	18.204764	-881.466104	-917.585376
134.69	0.006545	0.054139	10.543406	18.306685	-881.183954	-915.078187
135.20	0.006539	0.054151	10.543764	18.472464	-876.739525	-907.198351
135.71	0.006563	0.054178	10.544212	18.967031	-877.793025	-897.343307
136.22	0.006585	0.054167	10.544125	18.898758	-878.219320	-899.249137
136.73	0.006932	0.054171	10.543530	18.924621	-892.529034	-912.331334
137.24	0.009488	0.054159	10.543025	18.844690	-902.354720	-923.459282
137.75	0.021269	0.054166	10.543339	18.887792	-896.084821	-916.531931
138.26	0.057226	0.054183	10.543497	18.999120	-895.016441	-913.068186
138.77	0.140859	0.054219	10.542707	19.239865	-918.773716	-930.443954
139.28	0.296918	0.054250	10.542606	19.444772	-925.823715	-932.669531
139.79	0.527384	0.054279	10.542924	19.634522	-922.861943	-925.677635
140.30	0.790308	0.054283	10.542598	19.660849	-930.990140	-932.853067
140.81	1.011945	0.054276	10.542078	19.295510	-934.566436	-944.286838
141.32	1.129674	0.054244	10.541637	19.009145	-938.146228	-953.989789
141.83	1.124872	0.054216	10.542209	18.825728	-920.718106	-941.392583
142.34	1.019816	0.054171	10.542729	18.605308	-903.656091	-929.957136
142.85	0.856539	0.054144	10.543332	18.651301	-890.818687	-916.701544
143.36	0.676650	0.054131	10.544140	18.563980	-870.158363	-898.911009
143.87	0.511244	0.054131	10.543602	18.565913	-882.630634	-910.765919
144.38	0.375514	0.054118	10.542987	18.478309	-894.793574	-924.291874
144.89	0.271584	0.054109	10.542518	18.419940	-904.270618	-934.613770
145.40	0.194637	0.054081	10.542040	18.238027	-911.107594	-945.130130
145.91	0.138574	0.054051	10.541706	18.128028	-916.258102	-952.458654
146.42	0.097874	0.054003	10.541886	17.895951	-906.775293	-948.509031
