Length [m]	OTDR [V]	Brillouin intensity [V]	Fitted Frequency [GHz]	Temperature [”]	Compensated Strain [レュ]	Uncompensated Strain [レュ]
0.51	0.006962	0.073961	10.473372	-119.568291	679.752052	-2455.826393
1.02	0.006960	0.078038	10.458385	-103.698009	-31.211535	-2785.529488
1.53	0.006963	0.081422	10.452063	-78.328573	-761.018474	-2924.619550
2.04	0.006947	0.084357	10.448286	-56.931013	-1340.687498	-3007.708979
2.55	0.006960	0.086946	10.446194	-40.197458	-1774.137202	-3053.733944
3.06	0.006952	0.089222	10.445959	-23.308061	-2168.337966	-3058.897071
3.57	0.006945	0.091158	10.445388	-13.558090	-2405.951644	-3071.462550
4.08	0.006947	0.092743	10.444449	-3.867295	-2650.698476	-3092.131824
4.59	0.006950	0.093993	10.445341	10.996584	-2972.284347	-3072.504695
5.10	0.006957	0.094951	10.445563	23.816895	-3262.285292	-3067.622406
5.61	0.006966	0.095649	10.444314	29.572074	-3423.558464	-3095.086206
6.12	0.006975	0.096129	10.442978	29.754192	-3458.559732	-3124.475042
6.63	0.006972	0.096456	10.442606	25.413594	-3367.232679	-3132.671017
7.14	0.006969	0.096662	10.442928	21.149477	-3261.655127	-3125.593955
7.65	0.006959	0.096783	10.443542	20.512259	-3232.806759	-3112.067754
8.16	0.006958	0.096846	10.444858	25.649257	-3320.716779	-3083.124447
8.67	0.006961	0.096857	10.443578	31.432297	-3483.363348	-3111.286558
9.18	0.006956	0.096833	10.442821	35.889061	-3603.402837	-3127.928683
9.69	0.006953	0.096766	10.443774	36.783852	-3602.035741	-3106.976267
10.20	0.006939	0.096696	10.442443	36.239665	-3620.192917	-3136.246048
10.71	0.006927	0.096624	10.441919	35.760501	-3621.250166	-3147.776334
11.22	0.006927	0.096587	10.443073	37.577476	-3636.460806	-3122.387657
11.73	0.006931	0.096560	10.442825	40.112082	-3700.533672	-3127.850783
12.24	0.006932	0.096551	10.442015	42.843705	-3782.099966	-3145.674746
12.75	0.006939	0.096560	10.441735	43.327784	-3799.696118	-3151.830131
13.26	0.006932	0.096570	10.441586	42.146223	-3775.943772	-3155.118032
13.77	0.006928	0.096579	10.442597	39.724814	-3696.868068	-3132.857978
14.28	0.006927	0.096615	10.443461	38.169270	-3641.144068	-3113.860104
14.79	0.006924	0.096659	10.443430	36.439152	-3602.026620	-3114.536687
15.30	0.006912	0.096725	10.441804	35.172358	-3610.374198	-3150.316463
15.81	0.006893	0.096783	10.440529	33.432384	-3599.718554	-3178.359328
16.32	0.006850	0.096821	10.440572	33.144933	-3592.120714	-3177.423718
16.83	0.006784	0.096846	10.441707	33.078324	-3564.409336	-3152.452336
17.34	0.006690	0.096840	10.442183	33.844472	-3571.061490	-3141.974341
17.85	0.006582	0.096813	10.441753	34.873718	-3604.659889	-3151.423270
18.36	0.006487	0.096783	10.441616	35.948521	-3632.573007	-3154.448583
18.87	0.006399	0.096734	10.442453	35.567521	-3604.506597	-3136.042123
19.38	0.006331	0.096687	10.443847	35.570857	-3572.425418	-3105.366458
19.89	0.006269	0.096619	10.444094	36.007976	-3576.783920	-3099.925557
20.40	0.006227	0.096541	10.443351	38.728435	-3656.547518	-3116.275057
20.91	0.006195	0.096455	10.443360	40.077365	-3687.404304	-3116.088947
21.42	0.006168	0.096377	10.443282	41.193104	-3714.878341	-3117.796541
21.93	0.006145	0.096332	10.443515	40.743753	-3699.168515	-3112.677953
22.44	0.006131	0.096315	10.444272	38.867172	-3638.509418	-3096.021960
22.95	0.006117	0.096314	10.444575	37.279327	-3594.972242	-3089.358431
23.46	0.006110	0.096336	10.444755	36.879350	-3581.597514	-3085.383132
23.97	0.006104	0.096359	10.444024	37.471328	-3612.089446	-3101.470546
24.48	0.006094	0.096384	10.443451	38.456765	-3647.999382	-3114.086448
24.99	0.006093	0.096408	10.443418	39.298332	-3668.115529	-3114.795732
25.50	0.006092	0.096418	10.443179	38.929133	-3665.132534	-3120.057320
26.02	0.006090	0.096417	10.443687	38.075473	-3633.772404	-3108.887876
26.53	0.006089	0.096416	10.442957	37.034471	-3626.649996	-3124.952684
27.04	0.006092	0.096417	10.441660	37.302668	-3662.724501	-3153.475120
27.55	0.006102	0.096431	10.442670	38.355620	-3663.685296	-3131.270307
28.06	0.006105	0.096434	10.443105	39.239899	-3674.007770	-3121.699476
28.57	0.006108	0.096434	10.443171	40.221271	-3695.064418	-3120.235993
29.08	0.006113	0.096416	10.443583	39.774732	-3675.281151	-3111.169984
29.59	0.006111	0.096386	10.443034	39.311258	-3677.288356	-3123.261891
30.10	0.006103	0.096341	10.442427	38.895716	-3681.706369	-3136.600965
30.61	0.006101	0.096300	10.442188	38.564659	-3679.595678	-3141.857113
31.12	0.006096	0.096247	10.442722	38.891029	-3674.797509	-3130.113503
31.63	0.006101	0.096206	10.443084	39.387673	-3677.881465	-3122.149695
32.14	0.006101	0.096138	10.444053	39.500154	-3658.128865	-3100.837681
32.65	0.006098	0.096113	10.444183	38.840867	-3639.940589	-3097.964795
33.16	0.006089	0.096055	10.444115	37.772363	-3616.931649	-3099.479251
33.67	0.006088	0.096049	10.444897	37.888029	-3601.542070	-3082.259201
34.18	0.006087	0.096030	10.445274	36.081251	-3551.267062	-3073.975876
34.69	0.006093	0.096044	10.445051	37.633062	-3592.130213	-3078.879894
35.20	0.006095	0.096033	10.445246	37.665866	-3588.391746	-3074.593419
35.71	0.006100	0.096010	10.445543	37.439346	-3576.331449	-3068.063098
36.22	0.006099	0.095972	10.445066	38.166274	-3604.054845	-3078.546297
36.73	0.006098	0.095925	10.445191	37.274082	-3580.627272	-3075.789864
37.24	0.006090	0.095878	10.445749	37.477756	-3572.454824	-3063.521737
37.75	0.006085	0.095843	10.445945	37.736885	-3573.895860	-3059.206243
38.26	0.006089	0.095814	10.446490	37.498920	-3555.844675	-3047.212507
38.77	0.006092	0.095792	10.445800	37.289509	-3566.948913	-3062.403265
39.28	0.006103	0.095766	10.445062	36.784248	-3572.341863	-3078.642431
39.79	0.006104	0.095725	10.445219	36.118595	-3553.389857	-3075.180803
40.30	0.006104	0.095648	10.444777	35.342962	-3545.720559	-3084.896799
40.81	0.006096	0.095562	10.444129	35.196302	-3557.290782	-3099.154154
41.32	0.006097	0.095454	10.445291	34.943697	-3524.681115	-3073.594453
41.83	0.006091	0.095358	10.446133	35.100534	-3508.873861	-3055.071928
42.34	0.006095	0.095252	10.446664	34.707221	-3487.573701	-3043.390187
42.85	0.006098	0.095189	10.447262	34.312486	-3464.708337	-3030.246615
43.36	0.006094	0.095132	10.446462	34.370464	-3484.477814	-3047.831704
43.87	0.006088	0.095100	10.445453	34.410912	-3508.684493	-3070.034392
44.38	0.006083	0.095074	10.445211	35.035282	-3528.648098	-3075.367522
44.89	0.006073	0.095071	10.446084	35.703746	-3523.889131	-3056.149392
45.40	0.006073	0.095065	10.447254	35.677064	-3496.288396	-3030.406807
45.91	0.006077	0.095082	10.447476	35.501356	-3487.136463	-3025.535043
46.42	0.006076	0.095091	10.447005	35.467403	-3497.200557	-3035.880791
46.93	0.006080	0.095113	10.446907	35.194648	-3493.202379	-3038.056204
47.44	0.006076	0.095135	10.447550	35.642450	-3488.675385	-3023.904802
47.95	0.006080	0.095187	10.447684	36.092007	-3495.938847	-3020.961833
48.46	0.006071	0.095242	10.447614	36.376093	-3504.082888	-3022.492336
48.97	0.006067	0.095331	10.450434	36.845755	-3449.861957	-2960.457615
49.48	0.006061	0.095388	10.469602	37.729628	-3028.135339	-2538.761868
49.99	0.006056	0.095369	10.519209	38.675274	-1905.805908	-1447.401075
50.50	0.006060	0.095149	10.554883	40.186239	-1117.834881	-662.572884
51.01	0.006063	0.094617	10.563261	41.754462	-960.708391	-478.253188
51.53	0.006058	0.093657	10.566077	43.191545	-928.846171	-416.303371
52.04	0.006060	0.092302	10.567869	43.805900	-901.666270	-376.885980
52.55	0.006058	0.090665	10.569151	42.516948	-842.429604	-348.683361
53.06	0.006060	0.088938	10.569290	40.430885	-791.186346	-345.609101
53.57	0.006062	0.087281	10.569277	37.342911	-720.415647	-345.908074
54.08	0.006067	0.085841	10.569628	34.788655	-653.519795	-338.183591
54.59	0.006063	0.084645	10.569709	32.085154	-589.424582	-336.407850
55.10	0.006066	0.083716	10.570260	29.920642	-526.895712	-324.290833
55.61	0.006061	0.082998	10.570562	28.377589	-484.389306	-317.626985
56.12	0.006067	0.082462	10.570438	27.360024	-463.830472	-320.360078
56.63	0.006058	0.082061	10.570610	26.410842	-438.008153	-316.570713
57.14	0.006054	0.081772	10.570590	25.950176	-427.870936	-317.016327
57.65	0.006057	0.081549	10.570891	25.414520	-408.596703	-310.392792
58.16	0.006057	0.081403	10.571176	25.079450	-394.327397	-304.138876
58.67	0.006048	0.081301	10.571141	25.211532	-398.168512	-304.902617
59.18	0.006051	0.081248	10.570848	25.049904	-401.203217	-311.346544
59.69	0.006047	0.081204	10.571312	24.888801	-386.788900	-301.134259
60.20	0.006050	0.081187	10.571219	24.987061	-391.195141	-303.179736
60.71	0.006046	0.081153	10.570748	24.890125	-399.839530	-313.554230
61.22	0.006049	0.081123	10.570752	24.576854	-392.515001	-313.446326
61.73	0.006048	0.081081	10.570573	23.786840	-378.473238	-317.399378
62.24	0.006046	0.081038	10.570735	23.402911	-365.885787	-313.822674
62.75	0.006040	0.080983	10.571264	23.005648	-344.543641	-302.187621
63.26	0.006045	0.080959	10.571800	22.549970	-321.708213	-290.410822
63.77	0.006040	0.080926	10.571774	22.573296	-322.841861	-290.980017
64.28	0.006066	0.080926	10.571451	23.026754	-340.713141	-298.070237
64.79	0.006164	0.080932	10.571528	23.146707	-341.704325	-296.381741
65.30	0.006437	0.080930	10.571397	23.468583	-352.139441	-299.267901
65.81	0.007043	0.080895	10.571558	22.997246	-337.578659	-295.728191
66.32	0.008095	0.080850	10.571594	22.813291	-332.499371	-294.922420
66.83	0.009525	0.080766	10.571586	22.617174	-328.174921	-295.103745
67.34	0.011055	0.080708	10.571889	22.855045	-326.664101	-288.439262
67.85	0.012211	0.080665	10.572182	22.750967	-317.509183	-281.991753
68.36	0.012747	0.080677	10.571870	22.856007	-327.130695	-288.863237
68.87	0.012557	0.080715	10.572236	22.645010	-313.828277	-280.807182
69.38	0.011861	0.080776	10.572214	22.847391	-318.985703	-281.282870
69.89	0.010872	0.080810	10.572245	22.651878	-313.786934	-280.616940
70.40	0.009867	0.080829	10.572361	22.803275	-314.597697	-278.065862
70.91	0.008963	0.080800	10.572223	22.741637	-316.346425	-281.087471
71.42	0.008252	0.080769	10.572369	23.118911	-321.678522	-277.889383
71.93	0.007708	0.080719	10.572316	23.170651	-324.083603	-279.047453
72.44	0.007326	0.080703	10.572224	22.839908	-318.588143	-281.067955
72.95	0.007043	0.080687	10.572407	22.604592	-308.949836	-277.041127
73.46	0.006848	0.080705	10.572318	22.020770	-297.579310	-279.014616
73.97	0.006702	0.080704	10.572822	21.947076	-284.245969	-267.914094
74.48	0.006597	0.080712	10.573795	22.003600	-263.098518	-246.500242
74.99	0.006517	0.080701	10.573603	22.441165	-277.614447	-250.738772
75.50	0.006460	0.080713	10.573245	22.400812	-284.945345	-258.617850
76.01	0.006417	0.080713	10.572625	22.800264	-308.427426	-272.246132
76.52	0.006391	0.080739	10.572306	22.686206	-313.164993	-279.269859
77.03	0.006371	0.080731	10.572729	22.421154	-297.296272	-269.952784
77.55	0.006349	0.080720	10.573053	22.647550	-295.045233	-262.834169
78.06	0.006339	0.080687	10.572910	22.819638	-302.299501	-265.975231
78.57	0.006323	0.080652	10.572815	22.957064	-307.654077	-268.065311
79.08	0.006305	0.080607	10.572687	23.383151	-320.429876	-270.895968
79.59	0.006307	0.080590	10.572967	23.290557	-311.819325	-264.715536
80.10	0.006301	0.080561	10.573632	22.906489	-287.660699	-250.104079
80.61	0.006308	0.080547	10.573653	22.909482	-287.235293	-249.632564
81.12	0.006319	0.080550	10.573231	22.700154	-292.145273	-258.912769
81.63	0.006332	0.080566	10.573544	23.028694	-292.502955	-252.039690
82.14	0.006336	0.080588	10.573539	22.871234	-288.996928	-252.152874
82.65	0.006349	0.080627	10.573591	23.586262	-304.248269	-251.000217
83.16	0.006356	0.080656	10.573047	23.936012	-324.837638	-262.960519
83.67	0.006368	0.080699	10.573466	24.495429	-328.065243	-253.755330
84.18	0.006370	0.080727	10.573990	24.931983	-326.012619	-242.211227
84.69	0.006375	0.080769	10.573928	24.882886	-326.319407	-243.581980
85.20	0.006374	0.080789	10.573863	24.803022	-325.972581	-245.004843
85.71	0.006381	0.080819	10.573624	25.232413	-341.370461	-250.264142
86.22	0.006378	0.080821	10.573949	25.093442	-330.695445	-243.132788
86.73	0.006353	0.080797	10.574459	25.154878	-320.329053	-231.895191
87.24	0.006317	0.080740	10.574064	24.721116	-319.468589	-240.599184
87.75	0.006262	0.080657	10.573751	24.271958	-316.336645	-247.474464
88.26	0.006176	0.080542	10.574187	23.432221	-286.958948	-237.890354
88.77	0.006127	0.080446	10.574561	23.258654	-274.338500	-229.662941
89.28	0.006152	0.080431	10.574397	22.983892	-271.795106	-233.270159
89.79	0.006195	0.080523	10.574714	23.729890	-281.656467	-226.295910
90.30	0.006219	0.080610	10.574674	23.738674	-282.767098	-227.162456
90.81	0.006228	0.080634	10.574216	24.420626	-309.035719	-237.245546
91.32	0.006281	0.080562	10.574122	24.290143	-308.193049	-239.306930
91.83	0.006283	0.080512	10.573944	23.910122	-303.563932	-243.235925
92.34	0.006294	0.080460	10.574590	23.642015	-282.497271	-229.027560
92.85	0.006301	0.080426	10.574809	24.033660	-286.448983	-224.197175
93.36	0.006311	0.080405	10.575155	23.759361	-272.160171	-216.590218
93.87	0.006315	0.080406	10.575581	23.998548	-267.838052	-207.215112
94.38	0.006317	0.080408	10.575366	23.875966	-269.979000	-211.949110
94.89	0.006339	0.080396	10.575104	24.027690	-279.507414	-217.706651
95.40	0.006345	0.080365	10.575234	23.733574	-269.749815	-214.857199
95.91	0.006346	0.080374	10.575105	23.837991	-275.120184	-217.687180
96.42	0.006347	0.080413	10.574728	24.104036	-289.937868	-225.979868
96.93	0.006349	0.080476	10.574743	24.758454	-304.670157	-225.662994
97.44	0.006352	0.080514	10.575250	24.647214	-290.407073	-214.500037
97.95	0.006356	0.080507	10.574344	24.919582	-317.567154	-234.427372
98.46	0.006356	0.080445	10.570371	23.060006	-366.399585	-321.842508
98.97	0.006365	0.080386	10.565033	17.067406	-351.563771	-439.279458
99.48	0.006366	0.080366	10.560245	1.936734	-113.689802	-544.618167
99.99	0.006368	0.080436	10.552349	-27.063625	371.780750	-718.331728
100.50	0.006371	0.080577	10.540441	-67.033397	1017.253926	-980.290551
101.01	0.006371	0.080797	10.530750	-107.123089	1716.581919	-1193.510295
101.52	0.006371	0.081040	10.526350	-138.499016	2337.380620	-1290.297695
102.03	0.006371	0.081300	10.524862	-156.820984	2724.828087	-1323.033796
102.54	0.006371	0.081574	10.524224	-163.870265	2872.381405	-1337.074054
103.06	0.006371	0.081871	10.525223	-160.590034	2819.908414	-1315.099132
103.57	0.006371	0.082161	10.525931	-149.494102	2580.825391	-1299.510845
104.08	0.006371	0.082442	10.527506	-131.636988	2206.073194	-1264.872221
104.59	0.006371	0.082633	10.529788	-110.054715	1761.884435	-1214.670305
105.10	0.006371	0.082752	10.534456	-86.688250	1331.671953	-1111.958043
105.61	0.006371	0.082781	10.538557	-64.931616	925.402083	-1021.756400
106.12	0.006377	0.082776	10.541013	-45.651180	538.235499	-967.705799
106.63	0.006385	0.082767	10.542835	-30.430484	229.882520	-927.620565
107.14	0.006402	0.082812	10.543066	-17.911532	-52.985118	-922.551180
107.65	0.006403	0.082885	10.543168	-8.490331	-267.495723	-920.297842
108.16	0.006418	0.083006	10.543224	-0.801514	-443.203582	-919.071055
108.67	0.006421	0.083118	10.543295	5.015927	-575.492172	-917.519124
109.18	0.006424	0.083218	10.544351	9.666953	-658.192539	-894.277552
109.69	0.006442	0.083285	10.544829	12.990149	-723.665911	-883.760316
110.20	0.007458	0.083356	10.543815	15.648034	-808.248300	-906.080533
110.71	0.017711	0.083420	10.543530	17.398769	-855.114795	-912.343074
111.22	0.067464	0.083491	10.543904	18.812090	-879.010038	-904.102378
111.73	0.192882	0.083545	10.544040	20.272185	-909.504682	-901.129782
112.24	0.192882	0.083570	10.543711	20.938095	-932.403986	-908.351094
112.75	0.192882	0.083547	10.543328	21.741752	-959.744638	-916.784324
113.26	0.192882	0.083511	10.543858	22.613411	-967.574873	-905.113250
113.77	0.192882	0.083461	10.544115	22.310636	-954.700112	-899.480466
114.28	0.192882	0.083436	10.544152	22.516403	-958.578801	-898.662003
114.79	0.192882	0.083424	10.543712	22.070445	-958.446920	-908.328799
115.30	0.192882	0.083443	10.543583	21.516228	-948.662114	-911.164833
115.81	0.192882	0.083463	10.543276	20.885193	-941.218761	-917.921214
116.32	0.192882	0.083511	10.543581	20.851551	-933.417963	-911.218729
116.83	0.192882	0.083547	10.543299	20.298552	-927.185035	-917.416180
117.34	0.192882	0.083602	10.543323	20.129306	-922.737540	-916.890076
117.85	0.192882	0.083627	10.543507	19.565455	-905.517110	-912.844777
118.36	0.192882	0.083653	10.543407	19.555274	-907.595183	-915.050635
118.87	0.192882	0.083649	10.543649	19.260720	-895.229838	-909.723254
119.38	0.192882	0.083629	10.542960	19.216831	-910.112592	-924.883731
119.89	0.192882	0.083586	10.542199	18.646280	-914.531718	-941.627628
120.40	0.192882	0.083548	10.542437	18.638064	-908.857937	-936.395797
120.91	0.192882	0.083483	10.542099	19.749705	-942.226570	-943.816267
121.42	0.192882	0.083423	10.541867	21.551629	-989.054094	-948.917607
121.93	0.192882	0.083359	10.542676	24.418311	-1036.400517	-931.133359
122.44	0.132678	0.083317	10.542798	29.278726	-1145.469100	-928.446675
122.95	0.085951	0.083282	10.542777	32.102410	-1210.957843	-928.912669
123.46	0.050454	0.083278	10.542430	30.581618	-1183.946090	-936.540440
123.97	0.023677	0.083297	10.541676	28.082294	-1143.805413	-953.131617
124.48	0.004710	0.083337	10.541717	26.848162	-1114.443485	-952.222899
124.99	0.000000	0.083366	10.541988	26.423040	-1098.418101	-946.271265
125.50	0.000000	0.083410	10.542692	23.539969	-1015.815403	-930.784254
126.01	0.000000	0.083438	10.542028	23.544461	-1031.223593	-945.383563
126.52	0.000000	0.083477	10.541559	23.125236	-1032.391042	-955.702789
127.03	0.000000	0.083502	10.541883	22.830648	-1018.136479	-948.574000
127.54	0.000000	0.083520	10.541868	22.336758	-1007.106969	-948.898023
128.05	0.000000	0.083514	10.541406	22.060227	-1011.407005	-959.072079
128.56	0.000000	0.083505	10.541050	21.921332	-1016.408784	-966.893234
129.08	0.000000	0.083471	10.541427	20.507707	-975.188992	-958.614654
129.59	-0.001424	0.083438	10.541641	20.057204	-959.867044	-953.891365
130.10	0.002843	0.083391	10.541766	19.772486	-950.448149	-951.158624
130.61	0.005998	0.083357	10.542156	19.570661	-936.798824	-942.570259
131.12	0.007826	0.083320	10.541929	19.316282	-936.178595	-947.564418
131.63	0.008209	0.083307	10.541209	19.071227	-947.134976	-963.396827
132.14	0.007172	0.083279	10.540266	18.746638	-961.415304	-984.146414
132.65	0.004908	0.083275	10.541054	18.716342	-942.549250	-966.815228
133.16	0.001679	0.083257	10.545202	18.122920	-833.223164	-875.559228
133.67	-0.002183	0.083234	10.567103	17.956647	-324.295876	-393.742012
134.18	-0.006326	0.083165	10.595336	17.552718	336.150348	227.391289
134.69	-0.010148	0.083045	10.586670	16.859452	152.237000	36.732277
135.20	-0.013324	0.082841	10.587423	15.987680	189.680231	53.306714
135.71	-0.015651	0.082595	10.613637	14.936623	818.440839	630.004941
136.22	-0.016989	0.082322	10.635620	13.769297	1352.322612	1113.644668
136.73	-0.017234	0.082056	10.643815	12.633398	1567.462249	1293.924743
137.24	-0.016472	0.081794	10.634974	11.512886	1389.371201	1099.437952
137.75	-0.014803	0.081555	10.608716	10.490126	807.317764	521.755879
138.26	-0.012485	0.081310	10.603240	9.441261	705.169952	401.284972
138.77	-0.009744	0.081100	10.625012	8.544092	1227.942336	880.259663
139.28	-0.006852	0.080927	10.642822	7.805903	1655.694106	1272.084685
139.79	-0.004023	0.080809	10.648114	7.299926	1789.387313	1388.504780
140.30	-0.001636	0.080714	10.635047	6.602650	1504.074042	1101.031816
140.81	0.000199	0.080646	10.608372	5.851477	906.148823	514.173231
141.32	0.001339	0.080568	10.607901	4.608145	923.927915	503.831017
141.83	0.001811	0.080508	10.630474	4.303617	1451.539576	1000.435443
142.34	0.001625	0.080451	10.646412	3.279680	1842.677968	1351.060162
142.85	0.000918	0.080407	10.649869	2.942147	1930.191811	1427.128330
143.36	-0.000252	0.080329	10.634830	2.461016	1594.419113	1096.268089
143.87	-0.001662	0.080245	10.607915	1.137432	1004.130378	504.124647
144.38	-0.003143	0.080131	10.610337	-45.523779	2134.125475	557.419316
144.89	-0.004497	0.080041	10.634880	-215.090942	6603.527990	1097.352898
145.40	-0.006036	0.079977	10.649939	-305.906185	9041.373011	1428.652901
145.91	-0.006724	0.079950	10.652154	-326.908431	9575.921567	1477.382226
146.42	-0.007505	0.079895	10.639364	-326.916150	9281.130872	1196.010381
