Length [m]	OTDR [V]	Brillouin intensity [V]	Fitted Frequency [GHz]	Temperature [”]	Compensated Strain [レュ]	Uncompensated Strain [レュ]
0.51	0.006919	0.036507	10.503809	-152.920298	2096.534022	-1786.208492
1.02	0.007044	0.039788	10.476558	-129.213046	922.323605	-2385.716456
1.53	0.006986	0.042532	10.456093	-92.884899	-385.931481	-2835.953531
2.04	0.007042	0.044799	10.444599	-52.730912	-1575.339337	-3088.811650
2.55	0.006971	0.046630	10.437273	-26.942656	-2337.957431	-3250.003741
3.06	0.006911	0.048161	10.433732	-15.748114	-2677.308784	-3327.896594
3.57	0.006863	0.049441	10.432438	-23.729343	-2523.431521	-3356.368655
4.08	0.006852	0.050550	10.431152	-27.026378	-2477.195919	-3384.662452
4.59	0.006836	0.051486	10.430821	-17.386738	-2706.728588	-3391.942135
5.10	0.006878	0.052265	10.431348	5.837574	-3229.185726	-3380.344003
5.61	0.006898	0.052850	10.431880	25.400684	-3667.251658	-3368.639429
6.12	0.006919	0.053269	10.431448	34.771229	-3892.929702	-3378.151108
6.63	0.006881	0.053507	10.430185	25.457460	-3707.651170	-3405.930018
7.14	0.006865	0.053671	10.429849	10.895135	-3380.189960	-3413.330900
7.65	0.006834	0.053790	10.430729	-2.600895	-3049.200348	-3393.951734
8.16	0.006847	0.053915	10.431494	2.024829	-3138.049650	-3377.131257
8.67	0.006872	0.054054	10.431292	18.269573	-3516.661830	-3381.580014
9.18	0.006950	0.054190	10.431102	41.094818	-4046.462817	-3385.750166
9.69	0.006948	0.054244	10.430527	53.391891	-4342.801594	-3398.403109
10.20	0.006948	0.054219	10.430544	55.777145	-4397.325797	-3398.037248
10.71	0.006886	0.054105	10.430380	45.963439	-4175.189994	-3401.635722
11.22	0.006836	0.053999	10.429773	40.204963	-4056.626308	-3414.985106
11.73	0.006798	0.053905	10.428934	41.072787	-4095.973319	-3433.462257
12.24	0.006829	0.053897	10.429113	51.908476	-4341.261797	-3429.507964
12.75	0.006865	0.053921	10.429259	57.337798	-4462.890375	-3426.309939
13.26	0.006924	0.053943	10.428906	58.108789	-4488.779194	-3434.075548
13.77	0.006903	0.053894	10.428835	49.014657	-4281.074311	-3435.638938
14.28	0.006878	0.053822	10.429787	40.180172	-4055.734547	-3414.678839
14.79	0.006815	0.053728	10.431206	30.737782	-3805.655941	-3383.468944
15.30	0.006788	0.053697	10.431159	27.762944	-3738.264949	-3384.507529
15.81	0.006769	0.053718	10.430884	24.622581	-3672.312469	-3390.552981
16.32	0.006797	0.053803	10.430316	25.213866	-3699.032559	-3403.057650
16.83	0.006760	0.053870	10.430619	21.533499	-3607.321811	-3396.389900
17.34	0.006713	0.053887	10.431215	22.440496	-3614.441892	-3383.265420
17.85	0.006568	0.053822	10.430545	24.183350	-3670.026904	-3398.017667
18.36	0.006451	0.053719	10.430342	28.887582	-3782.999051	-3402.484166
18.87	0.006310	0.053588	10.430936	31.718981	-3834.479447	-3389.418115
19.38	0.006249	0.053512	10.431363	33.125681	-3856.994961	-3380.006658
19.89	0.006196	0.053470	10.431689	32.417842	-3833.196135	-3372.847962
20.40	0.006199	0.053468	10.432008	33.485296	-3850.415658	-3365.833996
20.91	0.006157	0.053453	10.432126	35.767413	-3900.222625	-3363.233087
21.42	0.006138	0.053433	10.432865	45.089566	-4097.760117	-3346.963959
21.93	0.006065	0.053386	10.433873	46.232580	-4100.826269	-3324.789835
22.44	0.006034	0.053363	10.434068	50.763204	-4200.631891	-3320.508914
22.95	0.005991	0.053339	10.433739	42.715535	-4022.967755	-3327.749478
23.46	0.006009	0.053361	10.434529	36.798519	-3868.520939	-3310.351066
23.97	0.006032	0.053384	10.433794	35.183174	-3848.300034	-3326.532912
24.48	0.006075	0.053406	10.433274	31.910104	-3784.954839	-3337.979555
24.99	0.006083	0.053384	10.433921	32.773480	-3789.893076	-3323.731658
25.50	0.006097	0.053346	10.433542	37.036438	-3896.764166	-3332.068063
26.02	0.006042	0.053285	10.432801	34.779702	-3861.908926	-3348.374171
26.53	0.006055	0.053250	10.432552	33.261060	-3832.697847	-3353.856787
27.04	0.006018	0.053239	10.433059	30.753931	-3763.298815	-3342.709648
27.55	0.006043	0.053285	10.433135	28.052459	-3699.351608	-3341.030552
28.06	0.006063	0.053349	10.433763	26.449402	-3647.974589	-3327.222580
28.57	0.006095	0.053423	10.434010	33.154154	-3796.616043	-3321.785678
29.08	0.006079	0.053455	10.433881	33.192231	-3800.470633	-3324.626455
29.59	0.006082	0.053470	10.433796	40.757082	-3976.573078	-3326.498185
30.10	0.006024	0.053447	10.433648	38.796532	-3934.836448	-3329.736278
30.61	0.006021	0.053447	10.434290	35.865294	-3852.561046	-3315.619148
31.12	0.006008	0.053442	10.434071	37.843352	-3903.155676	-3320.446285
31.63	0.006032	0.053480	10.433983	36.103241	-3865.123894	-3322.377935
32.14	0.006051	0.053488	10.434905	32.754546	-3766.761953	-3302.082521
32.65	0.006078	0.053474	10.435636	38.506989	-3882.338085	-3286.015764
33.16	0.006043	0.053413	10.436365	33.110099	-3741.282562	-3269.970165
33.67	0.006058	0.053349	10.436982	37.129820	-3819.591017	-3256.401679
34.18	0.006015	0.053271	10.437347	33.584354	-3729.545969	-3248.360605
34.69	0.006023	0.053254	10.437595	35.220630	-3761.509346	-3242.920348
35.20	0.006032	0.053231	10.438188	28.426757	-3591.437465	-3229.871663
35.71	0.006059	0.053266	10.438254	31.714114	-3665.575128	-3228.406296
36.22	0.006070	0.053256	10.437542	28.676845	-3612.087322	-3244.078091
36.73	0.006090	0.053267	10.436918	32.511340	-3714.739782	-3257.798762
37.24	0.006062	0.053223	10.437232	35.446972	-3775.083046	-3250.898226
37.75	0.006057	0.053220	10.438739	38.074256	-3800.795719	-3217.734284
38.26	0.006029	0.053192	10.439900	38.490416	-3783.614859	-3192.207103
38.77	0.006050	0.053226	10.439035	39.570078	-3828.411138	-3211.230663
39.28	0.006045	0.053237	10.438274	37.375769	-3795.458237	-3227.980618
39.79	0.006074	0.053269	10.437883	36.479671	-3783.839497	-3236.574462
40.30	0.006067	0.053248	10.437973	35.183471	-3751.927198	-3234.595866
40.81	0.006073	0.053221	10.437862	37.062445	-3797.733971	-3237.031580
41.32	0.006038	0.053169	10.438958	37.557332	-3783.865040	-3212.934934
41.83	0.006038	0.053119	10.438982	38.941947	-3815.174321	-3212.396845
42.34	0.006014	0.053064	10.439493	37.854944	-3778.363785	-3201.152122
42.85	0.006036	0.053048	10.441073	36.331066	-3706.844019	-3166.391243
43.36	0.006040	0.053032	10.440706	32.018246	-3616.029810	-3174.466464
43.87	0.006065	0.053021	10.440652	32.036216	-3617.700637	-3175.665678
44.38	0.006048	0.052972	10.440640	31.663139	-3609.389817	-3175.930176
44.89	0.006060	0.052924	10.440628	34.690136	-3679.342002	-3176.189396
45.40	0.006035	0.052839	10.441190	36.840714	-3715.887005	-3163.826255
45.91	0.006044	0.052782	10.441278	38.528714	-3752.717881	-3161.893338
46.42	0.006032	0.052740	10.440593	36.524568	-3722.362474	-3176.945340
46.93	0.006055	0.052747	10.439562	34.566671	-3701.072830	-3199.629654
47.44	0.006043	0.052760	10.440171	31.462826	-3615.577734	-3186.231451
47.95	0.006059	0.052806	10.441112	32.965387	-3628.464513	-3165.530126
48.46	0.006036	0.052841	10.441049	34.520942	-3665.730816	-3166.920874
48.97	0.006036	0.052881	10.442207	38.324630	-3726.576782	-3141.438612
49.48	0.006008	0.052900	10.447351	39.923250	-3644.751323	-3028.281479
49.99	0.006022	0.052901	10.466170	41.031300	-3236.233194	-2614.262778
50.50	0.006006	0.052819	10.501977	38.870602	-2360.671790	-1826.506117
51.01	0.006035	0.052626	10.532777	39.532638	-1665.562542	-1148.900517
51.53	0.006028	0.052240	10.555393	39.410106	-1141.151334	-651.352631
52.04	0.006040	0.051694	10.560804	43.727560	-1115.753052	-532.319972
52.55	0.006033	0.051007	10.563353	45.469430	-1097.048099	-476.228239
53.06	0.006037	0.050245	10.564932	48.228862	-1124.151778	-441.489402
53.57	0.006014	0.049451	10.566275	45.788409	-1037.000171	-411.943911
54.08	0.006028	0.048698	10.566696	43.175359	-967.134375	-402.677394
54.59	0.006015	0.047991	10.566544	37.421209	-838.201629	-406.040697
55.10	0.006033	0.047376	10.566956	35.154286	-776.497050	-396.958760
55.61	0.006026	0.046839	10.567211	32.038336	-698.907717	-391.367708
56.12	0.006042	0.046403	10.567394	33.013177	-717.106655	-387.321668
56.63	0.006020	0.046033	10.567550	31.925314	-688.472745	-383.895541
57.14	0.006030	0.045748	10.567868	32.270575	-689.102245	-376.914598
57.65	0.006009	0.045517	10.567741	29.292238	-623.454378	-379.692779
58.16	0.006017	0.045358	10.567472	26.610698	-567.942411	-385.622410
58.67	0.006003	0.045228	10.567826	22.921257	-474.831162	-377.817943
59.18	0.006034	0.045143	10.568291	21.782159	-437.893767	-367.596139
59.69	0.006024	0.045055	10.568509	20.218053	-396.860382	-362.799716
60.20	0.006041	0.044993	10.568173	22.998618	-468.625461	-370.199575
60.71	0.006019	0.044914	10.567763	21.627697	-446.527707	-379.223858
61.22	0.006025	0.044852	10.567857	23.327336	-483.463658	-377.135621
61.73	0.006003	0.044795	10.568336	21.360520	-427.150881	-366.607049
62.24	0.006013	0.044769	10.568219	19.953677	-397.475320	-369.191630
62.75	0.006005	0.044738	10.568350	17.824734	-345.427959	-366.291924
63.26	0.006024	0.044743	10.568434	18.820921	-366.427589	-364.448748
63.77	0.006012	0.044726	10.568004	18.484863	-368.611332	-373.911180
64.28	0.006061	0.044726	10.568017	21.979200	-448.745315	-373.620750
64.79	0.006146	0.044708	10.568338	21.995051	-441.721021	-366.572185
65.30	0.006471	0.044699	10.568549	22.698145	-453.039973	-361.930456
65.81	0.007118	0.044675	10.568796	21.079643	-410.066321	-356.477658
66.32	0.008279	0.044671	10.568579	19.908499	-388.130732	-361.269824
66.83	0.009804	0.044658	10.568445	18.194858	-351.767450	-364.211811
67.34	0.011417	0.044657	10.568812	20.276310	-391.213007	-356.133420
67.85	0.012589	0.044632	10.569737	19.132378	-343.558083	-335.794251
68.36	0.013083	0.044611	10.569208	21.580767	-412.118202	-347.430978
68.87	0.012815	0.044584	10.568777	20.877324	-405.848182	-356.896583
69.38	0.012035	0.044585	10.568957	20.344055	-389.433442	-352.948304
69.89	0.010966	0.044596	10.568976	18.808238	-353.642943	-352.531911
70.40	0.009909	0.044631	10.568573	18.459310	-354.910946	-361.403422
70.91	0.008958	0.044648	10.568921	17.373272	-321.873696	-353.736867
71.42	0.008231	0.044654	10.569080	19.119003	-358.395037	-350.240992
71.93	0.007644	0.044610	10.569214	19.061607	-353.985980	-347.295503
72.44	0.007252	0.044575	10.569359	20.423914	-381.988763	-344.093204
72.95	0.006935	0.044537	10.569532	18.852098	-341.816461	-340.287452
73.46	0.006731	0.044539	10.569343	19.186317	-353.871078	-344.447447
73.97	0.006565	0.044568	10.569047	17.702189	-326.531227	-350.957159
74.48	0.006471	0.044624	10.569272	18.569666	-341.317507	-346.013305
74.99	0.006379	0.044666	10.570300	18.568653	-317.578626	-323.390916
75.50	0.006331	0.044704	10.570085	20.916871	-376.604073	-328.132085
76.01	0.006270	0.044711	10.569103	21.018075	-401.570708	-349.725597
76.52	0.006247	0.044712	10.569009	22.421406	-436.058929	-351.808930
77.03	0.006206	0.044707	10.569237	21.054683	-399.339624	-346.793487
77.55	0.006197	0.044704	10.569840	20.809654	-379.784588	-333.520328
78.06	0.006173	0.044703	10.570048	19.344655	-341.267692	-328.948151
78.57	0.006176	0.044706	10.569509	20.368957	-377.268101	-340.796901
79.08	0.006157	0.044672	10.569573	19.336007	-352.028368	-339.402703
79.59	0.006159	0.044634	10.569668	20.524656	-377.193367	-337.306687
80.10	0.006135	0.044577	10.569243	19.525198	-363.977604	-346.646777
80.61	0.006150	0.044537	10.569460	19.936324	-368.440344	-341.876069
81.12	0.006138	0.044500	10.569778	18.252507	-322.349653	-334.884124
81.63	0.006152	0.044513	10.569240	19.078180	-353.764208	-346.720045
82.14	0.006147	0.044548	10.569318	18.425051	-336.940560	-345.013665
82.65	0.006172	0.044610	10.569252	20.308942	-381.828073	-346.464535
83.16	0.006166	0.044664	10.569605	20.703274	-382.759032	-338.693610
83.67	0.006187	0.044737	10.570073	22.991327	-424.626655	-328.388991
84.18	0.006174	0.044788	10.569488	22.570904	-428.436762	-341.255358
84.69	0.006197	0.044840	10.568866	23.959792	-474.758387	-354.943797
85.20	0.006178	0.044869	10.569319	22.428767	-429.063709	-344.974530
85.71	0.006207	0.044907	10.569060	23.181527	-452.366141	-350.673293
86.22	0.006192	0.044906	10.569482	22.424148	-425.207507	-341.397492
86.73	0.006195	0.044893	10.569990	22.776390	-421.594227	-330.216049
87.24	0.006138	0.044821	10.569846	21.950926	-405.911904	-333.382606
87.75	0.006087	0.044724	10.569684	22.517597	-422.688124	-336.942229
88.26	0.005974	0.044577	10.569485	20.530874	-381.562756	-341.338128
88.77	0.005921	0.044475	10.569959	20.478030	-369.416065	-330.911722
89.28	0.005929	0.044442	10.570288	19.093833	-329.954988	-323.664578
89.79	0.006003	0.044565	10.570202	20.523145	-364.839834	-325.555778
90.30	0.006035	0.044697	10.569823	20.648994	-376.485249	-333.900922
90.81	0.006059	0.044786	10.569617	22.672148	-427.792820	-338.417920
91.32	0.006079	0.044738	10.570031	21.713051	-396.168761	-329.311953
91.83	0.006084	0.044697	10.570751	22.641182	-400.929498	-313.472817
92.34	0.006087	0.044644	10.571148	21.677196	-369.589948	-304.745626
92.85	0.006097	0.044613	10.570867	22.307397	-390.583644	-310.933301
93.36	0.006108	0.044582	10.569600	20.199914	-371.290209	-338.806515
93.87	0.006110	0.044557	10.570017	20.608509	-371.078710	-329.632603
94.38	0.006115	0.044528	10.570764	19.306679	-323.872708	-313.188876
94.89	0.006116	0.044480	10.570769	20.264035	-345.808849	-313.091702
95.40	0.006132	0.044406	10.571389	19.317332	-309.699177	-299.434741
95.91	0.006144	0.044378	10.571665	20.387377	-327.974913	-293.371398
96.42	0.006144	0.044395	10.571270	19.922213	-326.375275	-302.059834
96.93	0.006144	0.044470	10.570473	21.014610	-369.896635	-319.587615
97.44	0.006144	0.044535	10.570302	20.426856	-360.315475	-323.354328
97.95	0.006144	0.044569	10.569537	21.405990	-400.509011	-340.194769
98.46	0.006144	0.044546	10.567242	18.270063	-381.249416	-390.683407
98.97	0.006144	0.044506	10.564157	12.996004	-330.978075	-458.540110
99.48	0.006144	0.044492	10.560169	-4.831437	-12.570413	-546.274523
99.99	0.006144	0.044557	10.554728	-34.930174	554.795874	-665.986102
100.50	0.006144	0.044657	10.547221	-77.170388	1354.026748	-831.130362
101.01	0.006132	0.044772	10.537851	-117.555718	2067.575830	-1037.276309
101.52	0.006131	0.044868	10.528912	-148.655788	2577.324914	-1233.937083
102.03	0.006131	0.044943	10.523352	-166.216027	2853.317959	-1356.263638
102.54	0.006131	0.045010	10.520532	-172.545888	2934.002310	-1418.293106
103.06	0.006131	0.045115	10.518531	-168.638936	2797.913518	-1462.317834
103.57	0.006130	0.045253	10.517883	-156.947299	2513.831593	-1476.573407
104.08	0.006130	0.045432	10.518277	-138.249678	2092.507217	-1467.903872
104.59	0.006130	0.045593	10.520241	-115.877240	1622.795953	-1424.697116
105.10	0.006130	0.045742	10.523892	-91.232538	1139.674895	-1344.386378
105.61	0.006130	0.045816	10.527881	-68.783001	714.907706	-1256.614261
106.12	0.006130	0.045845	10.531675	-47.724571	317.636518	-1173.160282
106.63	0.006131	0.045824	10.534724	-32.033790	26.780535	-1106.062178
107.14	0.006132	0.045799	10.536937	-18.094324	-243.080049	-1057.392835
107.65	0.006131	0.045781	10.537753	-8.452120	-446.214731	-1039.435056
108.16	0.006131	0.045777	10.539426	-0.113684	-599.571989	-1002.623198
108.67	0.006130	0.045748	10.541028	4.639267	-672.037414	-967.380323
109.18	0.006130	0.045707	10.541535	9.300177	-767.645650	-956.234610
109.69	0.006130	0.045635	10.541181	11.371932	-823.502617	-964.024066
110.20	0.006130	0.045576	10.541209	14.329346	-890.918508	-963.391847
110.71	0.006130	0.045510	10.541230	15.109867	-908.420532	-962.947995
111.22	0.006130	0.045495	10.540325	17.361563	-981.113107	-982.845803
111.73	0.006129	0.045482	10.539960	17.789884	-999.403943	-990.888212
112.24	0.006129	0.045491	10.540125	19.233340	-1028.821907	-987.253916
112.75	0.006127	0.045487	10.540982	19.063261	-1005.128967	-968.387794
113.26	0.006127	0.045501	10.541117	20.235583	-1029.004190	-965.419981
113.77	0.006127	0.045517	10.540103	20.244075	-1052.581482	-987.723997
114.28	0.006129	0.045561	10.540319	22.025212	-1088.602804	-982.973707
114.79	0.006129	0.045618	10.541021	21.590365	-1062.421553	-967.547900
115.30	0.006129	0.045663	10.540841	22.650330	-1090.967088	-971.502319
115.81	0.006129	0.045665	10.540596	21.866338	-1078.559389	-976.881898
116.32	0.006129	0.045628	10.540157	21.861795	-1088.584162	-986.544320
116.83	0.006127	0.045544	10.539437	19.747590	-1056.531875	-1002.394397
117.34	0.006129	0.045454	10.539270	19.397081	-1052.308925	-1006.062783
117.85	0.006129	0.045375	10.539684	17.519596	-999.528955	-996.942588
118.36	0.006129	0.045337	10.540195	17.947729	-997.611844	-985.712669
118.87	0.006129	0.045331	10.540022	16.611439	-970.847053	-989.524612
119.38	0.006127	0.045364	10.540174	17.958784	-998.340436	-986.164910
119.89	0.006127	0.045408	10.540228	16.621288	-966.312611	-984.982898
120.40	0.006127	0.045465	10.539913	17.926045	-1003.610481	-991.910932
120.91	0.006127	0.045501	10.540255	18.048306	-998.537074	-984.386720
121.42	0.006127	0.045529	10.540244	21.629044	-1081.213662	-984.624452
121.93	0.006127	0.045506	10.540254	24.475156	-1146.504483	-984.409144
122.44	0.006127	0.045470	10.540252	31.091819	-1298.867307	-984.456384
122.95	0.006127	0.045401	10.539854	33.788814	-1370.140377	-993.221962
123.46	0.006125	0.045353	10.539326	32.918690	-1362.286122	-1004.836440
123.97	0.006123	0.045305	10.539275	27.942060	-1248.904616	-1005.960913
124.48	0.006121	0.045296	10.539600	25.903449	-1194.460412	-998.791292
124.99	0.006118	0.045276	10.540313	24.317965	-1141.532318	-983.117857
125.50	0.006117	0.045262	10.541690	22.954518	-1078.388447	-952.823960
126.01	0.006117	0.045226	10.545891	22.385652	-968.411884	-860.408224
126.52	0.006115	0.045196	10.551391	21.945308	-831.419474	-739.399795
127.03	0.006115	0.045155	10.553523	21.041251	-761.424778	-692.483294
127.54	0.006112	0.045140	10.553652	20.250397	-740.247307	-689.648022
128.05	0.006107	0.045130	10.555985	20.106355	-683.145115	-638.340919
128.56	0.006102	0.045137	10.559918	19.854423	-586.637844	-551.814198
129.08	0.006101	0.045118	10.561244	19.624470	-550.747823	-522.627958
129.59	0.006128	0.045094	10.559329	18.464409	-568.211808	-564.760235
130.10	0.006101	0.045035	10.559309	17.322266	-542.382602	-565.201444
130.61	0.006104	0.044973	10.561239	16.832925	-486.606624	-522.741678
131.12	0.006091	0.044920	10.561314	16.411043	-475.156588	-521.083371
131.63	0.006112	0.044890	10.559513	16.176313	-511.296634	-560.711874
132.14	0.006104	0.044873	10.559942	16.042192	-498.318797	-551.277342
132.65	0.006118	0.044879	10.562460	16.083991	-441.213583	-495.886543
133.16	0.006104	0.044858	10.561967	15.917922	-448.759978	-506.731720
133.67	0.006118	0.044841	10.560732	15.781197	-474.086224	-533.892844
134.18	0.006102	0.044807	10.562394	15.514803	-429.628575	-497.334096
134.69	0.006119	0.044772	10.563369	15.236068	-400.728544	-475.886846
135.20	0.006117	0.044729	10.562115	15.558321	-437.065396	-503.472543
135.71	0.006136	0.044708	10.560687	15.454272	-467.612399	-534.896248
136.22	0.006118	0.044673	10.561906	15.175888	-433.090627	-508.078668
136.73	0.006141	0.044670	10.563486	15.147699	-395.982277	-473.299806
137.24	0.006117	0.044669	10.562137	15.145421	-427.042229	-502.978070
137.75	0.006133	0.044687	10.560766	15.388429	-464.271126	-533.154797
138.26	0.006128	0.044694	10.562319	15.449020	-429.839708	-498.980017
138.77	0.006318	0.044707	10.562838	15.552427	-420.246976	-487.558773
139.28	0.007815	0.044710	10.560787	15.574862	-468.076133	-532.690626
139.79	0.015176	0.044731	10.560934	15.738727	-468.462472	-529.460912
140.30	0.038889	0.044743	10.562797	15.836106	-427.720532	-488.458660
140.81	0.096046	0.044773	10.563287	15.970199	-419.504239	-477.676596
141.32	0.206582	0.044800	10.561773	16.163882	-458.887525	-510.991517
141.83	0.376759	0.044833	10.561475	16.450317	-472.359121	-517.552439
142.34	0.579418	0.044857	10.563898	16.636979	-420.771244	-464.243674
142.85	0.759955	0.044875	10.563990	16.891270	-424.507355	-462.223691
143.36	0.866046	0.044877	10.561448	16.901154	-483.368881	-518.154979
143.87	0.876771	0.044883	10.562162	16.955231	-468.142385	-502.442885
144.38	0.805342	0.044862	10.564903	16.784065	-400.987502	-442.142061
144.89	0.683069	0.044864	10.564054	16.803585	-421.010619	-460.813593
145.40	0.543593	0.044864	10.561799	16.797689	-472.871099	-510.413031
145.91	0.412733	0.044892	10.562704	17.053726	-457.908447	-490.517872
146.42	0.304073	0.044927	10.564471	17.353972	-424.064762	-451.641237
