Length [m]	OTDR [V]	Brillouin intensity [V]	Fitted Frequency [GHz]	Temperature [”]	Compensated Strain [レュ]	Uncompensated Strain [レュ]
0.51	0.007085	0.040266	10.508481	-152.890655	2224.323494	-1683.421262
1.02	0.007122	0.043986	10.480727	-131.268149	1086.480684	-2294.016032
1.53	0.007134	0.047109	10.460977	-93.806131	-231.357221	-2728.496016
2.04	0.007096	0.049625	10.449321	-52.709733	-1446.223203	-2984.944765
2.55	0.006997	0.051719	10.440967	-24.686471	-2283.963574	-3168.718831
3.06	0.006956	0.053436	10.437075	-13.912502	-2621.752531	-3254.356507
3.57	0.006958	0.054907	10.434802	-20.574476	-2520.817144	-3304.361150
4.08	0.006984	0.056114	10.433297	-26.355458	-2422.442266	-3337.462937
4.59	0.007035	0.057127	10.433600	-15.871543	-2656.795025	-3330.801461
5.10	0.007068	0.057895	10.434489	6.439470	-3149.889695	-3311.249059
5.61	0.007068	0.058502	10.434016	28.082108	-3659.000301	-3321.650886
6.12	0.007020	0.058900	10.434070	36.246715	-3845.693237	-3320.455156
6.63	0.006964	0.059221	10.433886	28.133682	-3663.174703	-3324.500389
7.14	0.006929	0.059462	10.433427	11.486899	-3290.561144	-3334.601942
7.65	0.006948	0.059710	10.433452	0.158119	-3029.204098	-3334.055920
8.16	0.006999	0.059890	10.433266	3.796495	-3117.254241	-3338.153873
8.67	0.007068	0.060055	10.432979	20.808809	-3515.495377	-3344.472062
9.18	0.007105	0.060096	10.432822	40.822676	-3979.809899	-3347.908167
9.69	0.007086	0.060072	10.432664	53.492070	-4275.115081	-3351.399516
10.20	0.007019	0.059940	10.432583	54.092858	-4290.800082	-3353.169084
10.71	0.006951	0.059820	10.432135	47.430940	-4147.786014	-3363.033424
11.22	0.006925	0.059721	10.431592	41.696621	-4028.314282	-3374.986160
11.73	0.006946	0.059722	10.431627	44.096449	-4082.733804	-3374.200433
12.24	0.006997	0.059735	10.430882	51.211731	-4263.714783	-3390.597702
12.75	0.007058	0.059794	10.430512	56.506899	-4394.143288	-3398.739794
13.26	0.007062	0.059791	10.430807	55.551926	-4365.357249	-3392.250488
13.77	0.007012	0.059781	10.430981	51.317992	-4263.872824	-3388.415108
14.28	0.006940	0.059748	10.432101	44.753781	-4086.927908	-3363.767134
14.79	0.006899	0.059789	10.432685	38.307612	-3925.081114	-3350.929298
15.30	0.006894	0.059868	10.431978	32.077585	-3797.969605	-3366.479463
15.81	0.006929	0.060006	10.431340	27.506831	-3707.463146	-3380.512120
16.32	0.006949	0.060105	10.432103	24.282607	-3615.649042	-3363.729515
16.83	0.006918	0.060160	10.433522	23.620522	-3567.693789	-3332.523183
17.34	0.006802	0.060076	10.433705	26.247436	-3623.943213	-3328.496538
17.85	0.006644	0.059960	10.432394	31.015600	-3763.922770	-3357.321683
18.36	0.006496	0.059803	10.431161	36.390246	-3916.099882	-3384.464684
18.87	0.006393	0.059702	10.431587	36.609567	-3911.317872	-3375.087117
19.38	0.006345	0.059628	10.432375	34.995629	-3855.987584	-3357.747030
19.89	0.006344	0.059632	10.432503	32.479673	-3795.119017	-3354.930991
20.40	0.006332	0.059607	10.433223	35.264799	-3842.631032	-3339.095561
20.91	0.006288	0.059575	10.433883	42.201139	-3987.073525	-3324.567909
21.42	0.006210	0.059499	10.434180	48.850048	-4133.296599	-3318.050316
21.93	0.006140	0.059441	10.434571	57.241185	-4317.418786	-3309.428030
22.44	0.006094	0.059383	10.435586	52.402059	-4182.625143	-3287.107979
22.95	0.006098	0.059402	10.435444	44.928336	-4013.848383	-3290.223227
23.46	0.006133	0.059400	10.435658	40.104375	-3897.886940	-3285.534293
23.97	0.006179	0.059424	10.436320	31.615991	-3687.201292	-3270.952944
24.48	0.006200	0.059395	10.435884	32.346804	-3714.097791	-3280.562061
24.99	0.006187	0.059374	10.435612	36.255761	-3810.347305	-3286.539841
25.50	0.006145	0.059328	10.435591	39.207986	-3878.793162	-3287.004070
26.02	0.006116	0.059359	10.435882	41.029967	-3914.024851	-3280.603668
26.53	0.006115	0.059400	10.435426	38.694679	-3870.765554	-3290.617968
27.04	0.006138	0.059511	10.435327	32.293377	-3725.704559	-3292.806977
27.55	0.006182	0.059581	10.435403	27.014960	-3602.445002	-3291.135558
28.06	0.006215	0.059644	10.436094	29.118475	-3634.926470	-3275.929608
28.57	0.006215	0.059607	10.435915	31.752528	-3699.687265	-3279.865225
29.08	0.006184	0.059549	10.435509	40.439680	-3909.038098	-3288.808637
29.59	0.006147	0.059454	10.435292	44.824982	-4014.976295	-3293.568658
30.10	0.006122	0.059398	10.435253	44.095548	-3999.087331	-3294.429415
30.61	0.006113	0.059343	10.435630	41.288647	-3925.776650	-3286.133508
31.12	0.006140	0.059339	10.435777	36.916005	-3821.740492	-3282.909861
31.63	0.006168	0.059299	10.436704	33.438949	-3720.306125	-3262.502269
32.14	0.006179	0.059253	10.437427	36.369304	-3771.097933	-3246.606441
32.65	0.006161	0.059149	10.437753	39.157948	-3827.771945	-3239.433431
33.16	0.006132	0.059082	10.437394	43.757262	-3941.929218	-3247.334272
33.67	0.006102	0.059006	10.437956	43.428633	-3921.404525	-3234.971889
34.18	0.006102	0.059022	10.438919	40.318051	-3827.579262	-3213.775426
34.69	0.006126	0.059036	10.438533	33.390358	-3677.025349	-3222.283502
35.20	0.006164	0.059122	10.438446	31.993773	-3646.876553	-3224.191415
35.71	0.006191	0.059136	10.439190	31.417172	-3616.435527	-3207.814899
36.22	0.006193	0.059168	10.439523	33.615892	-3659.382104	-3200.501124
36.73	0.006171	0.059102	10.439358	38.470564	-3774.944219	-3204.134774
37.24	0.006143	0.059091	10.439741	40.643807	-3816.129355	-3195.700161
37.75	0.006129	0.059018	10.440170	40.061308	-3792.833239	-3186.268731
38.26	0.006130	0.059016	10.440563	38.622689	-3750.636538	-3177.607094
38.77	0.006160	0.058983	10.441276	35.713829	-3667.234069	-3161.923465
39.28	0.006186	0.058981	10.441459	33.932582	-3622.007500	-3157.895242
39.79	0.006195	0.058929	10.440458	33.580283	-3636.987732	-3179.920931
40.30	0.006180	0.058913	10.440270	36.042222	-3697.997494	-3184.057810
40.81	0.006151	0.058860	10.441581	38.713929	-3729.257938	-3155.210447
41.32	0.006123	0.058866	10.441626	40.672765	-3773.328657	-3154.236494
41.83	0.006110	0.058862	10.441751	39.614483	-3746.067628	-3151.470409
42.34	0.006121	0.058911	10.441960	37.163999	-3684.854702	-3146.888209
42.85	0.006142	0.058931	10.442283	33.609788	-3595.587468	-3139.781122
43.36	0.006167	0.058966	10.442787	31.900066	-3544.608380	-3128.694965
43.87	0.006167	0.058948	10.442713	32.747297	-3565.809491	-3130.314825
44.38	0.006160	0.058937	10.442107	36.269386	-3660.864310	-3143.648072
44.89	0.006144	0.058902	10.441789	39.683482	-3746.780189	-3150.635018
45.40	0.006129	0.058891	10.442443	41.075490	-3763.758393	-3136.264094
45.91	0.006136	0.058874	10.443561	39.770852	-3707.921609	-3111.649086
46.42	0.006148	0.058895	10.443574	37.142296	-3647.121092	-3111.370499
46.93	0.006161	0.058881	10.443079	33.843993	-3582.616799	-3122.265536
47.44	0.006162	0.058870	10.442711	33.552785	-3584.405693	-3130.366489
47.95	0.006148	0.058800	10.442922	35.739041	-3629.863124	-3125.721498
48.46	0.006132	0.058750	10.443344	39.312015	-3702.365050	-3116.424068
48.97	0.006109	0.058673	10.444830	41.066120	-3708.490380	-3083.749420
49.48	0.006103	0.058637	10.450658	41.119450	-3575.291505	-2955.519283
49.99	0.006109	0.058580	10.468991	38.826706	-3099.712315	-2552.207255
50.50	0.006125	0.058501	10.501614	37.216159	-2310.232730	-1834.483965
51.01	0.006137	0.058283	10.534268	37.491590	-1563.469555	-1116.094709
51.53	0.006137	0.057913	10.556007	41.521370	-1154.877007	-637.847983
52.04	0.006126	0.057324	10.561285	46.581040	-1149.626003	-521.735920
52.55	0.006120	0.056598	10.563940	50.413880	-1176.621296	-463.323191
53.06	0.006112	0.055740	10.566093	50.678052	-1133.040883	-415.950769
53.57	0.006119	0.054876	10.567053	47.501635	-1037.774490	-394.825238
54.08	0.006128	0.054000	10.567719	41.409868	-882.185375	-380.174477
54.59	0.006143	0.053203	10.567919	36.470234	-763.863323	-375.773779
55.10	0.006145	0.052453	10.568205	33.775775	-695.250990	-369.490588
55.61	0.006137	0.051808	10.568494	33.829707	-689.820016	-363.125679
56.12	0.006123	0.051253	10.568167	34.070260	-702.906384	-370.326631
56.63	0.006113	0.050850	10.568498	33.908118	-691.530458	-363.035484
57.14	0.006108	0.050525	10.568700	31.242273	-625.520534	-358.606414
57.65	0.006112	0.050330	10.568595	27.749425	-547.524821	-360.903858
58.16	0.006116	0.050168	10.568309	23.814199	-463.550309	-367.212068
58.67	0.006121	0.050078	10.567927	21.954566	-429.543044	-375.607248
59.18	0.006126	0.049992	10.568718	22.107758	-414.832254	-358.210682
59.69	0.006115	0.049944	10.568933	24.224978	-458.615607	-353.484712
60.20	0.006111	0.049887	10.568867	25.488272	-489.201061	-354.920216
60.71	0.006101	0.049860	10.569164	25.395359	-480.212756	-348.386445
61.22	0.006097	0.049810	10.569323	23.636633	-436.072443	-344.899887
61.73	0.006106	0.049783	10.569249	20.862770	-373.909374	-346.512275
62.24	0.006118	0.049730	10.569397	18.591850	-318.221676	-343.257658
62.75	0.006120	0.049700	10.569388	18.321175	-312.210046	-343.466762
63.26	0.006119	0.049646	10.569319	19.729262	-346.208936	-344.978907
63.77	0.006115	0.049624	10.568861	21.732740	-402.905501	-355.068544
64.28	0.006129	0.049585	10.569266	22.955132	-421.692992	-346.148043
64.79	0.006239	0.049596	10.569927	23.534312	-419.772968	-331.598567
65.30	0.006545	0.049597	10.569551	21.943359	-391.823887	-339.872852
65.81	0.007208	0.049633	10.569705	20.581315	-356.924853	-336.491010
66.32	0.008341	0.049649	10.569811	20.087404	-343.111630	-334.160094
66.83	0.009865	0.049680	10.569717	21.349692	-374.334980	-336.226174
67.34	0.011454	0.049671	10.569590	22.985475	-414.915348	-339.016532
67.85	0.012640	0.049670	10.570085	24.742048	-443.944331	-328.135590
68.36	0.013126	0.049645	10.570037	24.575877	-441.213054	-329.179094
68.87	0.012903	0.049653	10.570382	23.207686	-401.759550	-321.587721
69.38	0.012120	0.049660	10.570859	21.041715	-340.904438	-311.099332
69.89	0.011092	0.049705	10.570487	19.770977	-320.240820	-319.291783
70.40	0.010020	0.049724	10.570379	19.791712	-323.202903	-321.662032
70.91	0.009091	0.049755	10.570059	21.287802	-365.021364	-328.700880
71.42	0.008338	0.049738	10.570424	22.819297	-391.861988	-320.674841
71.93	0.007777	0.049733	10.570690	23.592274	-403.513542	-314.815849
72.44	0.007360	0.049699	10.570569	23.316172	-399.943690	-317.473355
72.95	0.007062	0.049698	10.570944	21.538607	-350.394181	-309.240608
73.46	0.006838	0.049687	10.570366	19.949697	-327.143558	-321.951914
73.97	0.006679	0.049719	10.570306	19.664909	-321.961061	-323.261838
74.48	0.006546	0.049729	10.570194	20.558933	-345.138232	-325.739164
74.99	0.006452	0.049767	10.570381	22.567869	-387.065754	-321.620699
75.50	0.006373	0.049771	10.570502	24.238495	-422.733432	-318.959715
76.01	0.006321	0.049792	10.570937	25.196281	-434.741812	-309.382949
76.52	0.006278	0.049787	10.571386	24.457832	-407.384473	-299.501932
77.03	0.006256	0.049813	10.570785	23.437457	-397.756554	-312.723786
77.55	0.006230	0.049809	10.570285	21.931313	-374.612523	-323.719347
78.06	0.006220	0.049839	10.570217	22.168476	-381.661476	-325.235631
78.57	0.006204	0.049821	10.571134	22.442508	-366.814548	-305.055715
79.08	0.006194	0.049820	10.571282	23.372320	-384.810669	-301.804951
79.59	0.006176	0.049776	10.570909	23.904670	-405.658528	-310.002186
80.10	0.006168	0.049744	10.571457	23.256709	-378.104462	-297.946532
80.61	0.006168	0.049675	10.572224	22.090033	-333.549488	-281.063848
81.12	0.006176	0.049637	10.571718	20.998340	-320.105804	-292.211872
81.63	0.006179	0.049585	10.571606	20.619591	-313.962012	-294.668046
82.14	0.006189	0.049575	10.571602	21.350269	-330.871482	-294.753436
82.65	0.006197	0.049557	10.571844	22.145454	-343.590599	-289.425152
83.16	0.006205	0.049566	10.572009	23.601814	-373.306825	-285.792032
83.67	0.006207	0.049557	10.571966	23.886041	-380.857490	-286.753427
84.18	0.006214	0.049579	10.572403	23.650145	-365.332851	-277.124323
84.69	0.006209	0.049582	10.571283	22.736672	-370.140067	-301.768523
85.20	0.006214	0.049597	10.570781	22.140506	-368.002966	-312.820889
85.71	0.006220	0.049609	10.570970	22.199850	-365.003634	-308.656703
86.22	0.006222	0.049630	10.571214	23.009327	-378.006551	-303.285294
86.73	0.006202	0.049611	10.571411	23.279721	-379.695378	-298.958797
87.24	0.006164	0.049584	10.571321	23.507262	-387.003125	-300.933219
87.75	0.006098	0.049486	10.571390	22.391033	-359.726965	-299.425140
88.26	0.006004	0.049362	10.571221	20.940863	-330.246814	-303.147533
88.77	0.005946	0.049229	10.571564	19.122131	-280.466044	-295.598154
89.28	0.005978	0.049202	10.572140	18.772637	-259.130253	-282.920235
89.79	0.006115	0.049293	10.572213	19.927853	-284.040278	-281.315136
90.30	0.006274	0.049449	10.572015	21.900323	-334.010783	-285.669639
90.81	0.006274	0.049529	10.572013	23.078212	-361.180286	-285.721998
91.32	0.006274	0.049517	10.572240	23.247312	-359.820598	-280.711801
91.83	0.006274	0.049483	10.572416	22.808304	-345.654112	-276.838302
92.34	0.006274	0.049491	10.572439	22.634024	-341.114201	-276.334611
92.85	0.006274	0.049491	10.572532	22.331038	-331.995102	-274.288987
93.36	0.006274	0.049512	10.572351	22.149511	-331.996735	-278.276619
93.87	0.006274	0.049519	10.571894	22.872182	-359.181880	-288.339833
94.38	0.006274	0.049520	10.571325	23.112872	-377.839144	-300.851903
94.89	0.006274	0.049472	10.571614	23.366709	-377.017939	-294.494640
95.40	0.006274	0.049419	10.572540	23.236197	-352.642984	-274.109106
95.91	0.006274	0.049351	10.572396	22.190826	-331.911735	-277.288317
96.42	0.006274	0.049351	10.572292	21.486487	-318.106068	-279.585304
96.93	0.006274	0.049376	10.572066	21.551127	-324.805553	-284.556563
97.44	0.006274	0.049421	10.571843	21.911733	-338.235697	-289.449257
97.95	0.006274	0.049398	10.571702	22.001425	-343.554292	-292.553174
98.46	0.006274	0.049353	10.569959	20.849495	-357.242096	-330.904783
98.97	0.006274	0.049245	10.566265	13.706281	-278.007519	-412.177274
99.48	0.006274	0.049197	10.561544	-3.159323	1.357670	-516.033919
99.99	0.006274	0.049192	10.555348	-34.111460	570.959224	-652.352730
100.50	0.006274	0.049293	10.546845	-75.086404	1318.096986	-839.405358
101.01	0.004806	0.049421	10.537304	-115.366782	2025.285387	-1049.314178
101.52	0.003282	0.049596	10.529568	-145.781091	2546.993679	-1219.508698
102.03	0.002141	0.049736	10.525267	-163.474691	2855.110158	-1314.120938
102.54	0.001316	0.049901	10.523161	-169.433173	2943.706145	-1360.448512
103.06	0.000727	0.050060	10.522336	-165.938949	2844.237202	-1378.604293
103.57	0.000352	0.050279	10.521666	-153.915919	2552.022260	-1393.341083
104.08	0.000113	0.050468	10.521190	-135.945249	2127.367972	-1403.810777
104.59	0.000101	0.050676	10.522284	-113.225146	1629.582654	-1379.749783
105.10	0.000097	0.050793	10.524597	-89.498234	1136.750248	-1328.856074
105.61	0.000069	0.050878	10.527803	-66.453400	680.189933	-1258.339722
106.12	0.000038	0.050854	10.530840	-46.889324	299.879625	-1191.520553
106.63	-0.000012	0.050806	10.532966	-30.611174	-25.814384	-1144.756839
107.14	-0.000066	0.050710	10.535458	-18.198152	-254.082720	-1089.930979
107.65	-0.000066	0.050626	10.536563	-8.198011	-458.796531	-1065.619744
108.16	-0.000111	0.050508	10.537474	-1.108497	-600.987606	-1045.580940
108.67	-0.000171	0.050380	10.537788	4.896838	-731.981850	-1038.668465
109.18	-0.000208	0.050199	10.537460	8.649997	-825.940734	-1045.882310
109.69	-0.000223	0.050027	10.538230	11.772969	-880.062820	-1028.933652
110.20	-0.000223	0.049836	10.538523	13.319230	-908.901504	-1022.489334
110.71	-0.000223	0.049706	10.537967	14.790649	-955.598232	-1034.723329
111.22	-0.000223	0.049609	10.538102	15.323225	-964.747609	-1031.756354
111.73	-0.000223	0.049592	10.537955	16.689896	-999.592833	-1034.985256
112.24	-0.000223	0.049571	10.537582	17.117976	-1018.054571	-1043.195990
112.75	-0.000223	0.049583	10.537726	18.118855	-1037.780217	-1040.034506
113.26	-0.000223	0.049557	10.537947	18.531154	-1042.175106	-1035.173325
113.77	-0.000223	0.049552	10.537554	19.520317	-1073.997624	-1043.808378
114.28	-0.000223	0.049531	10.537701	19.870247	-1078.656489	-1040.568529
114.79	-0.000223	0.049559	10.537887	20.057623	-1078.688531	-1036.484584
115.30	-0.000223	0.049576	10.538151	19.681973	-1063.947740	-1030.671996
115.81	-0.000266	0.049629	10.538042	19.921968	-1071.988315	-1033.071998
116.32	-0.000266	0.049639	10.537731	19.407791	-1067.323052	-1039.912366
116.83	-0.000266	0.049668	10.537564	19.179490	-1065.932315	-1043.598917
117.34	-0.000266	0.049652	10.537634	18.589946	-1050.742248	-1042.054575
117.85	-0.000266	0.049646	10.538299	18.393681	-1030.883923	-1027.421302
118.36	-0.000266	0.049592	10.538637	17.607431	-1004.995585	-1019.991208
118.87	-0.000245	0.049543	10.538438	17.584180	-1009.037847	-1024.357714
119.38	-0.000208	0.049459	10.538203	16.654360	-993.067914	-1029.541416
119.89	-0.000202	0.049396	10.538081	15.849946	-977.363018	-1032.224216
120.40	-0.000180	0.049324	10.538129	15.244113	-962.309653	-1031.167970
120.91	-0.000171	0.049301	10.538373	16.188996	-978.428469	-1025.795517
121.42	-0.000133	0.049282	10.538524	18.282858	-1023.146256	-1022.473820
121.93	-0.000133	0.049321	10.538701	22.412564	-1114.132966	-1018.584082
122.44	-0.000133	0.049356	10.539258	28.388057	-1238.835313	-1006.325005
122.95	-0.000133	0.049427	10.539132	32.510296	-1336.629193	-1009.092616
123.46	-0.000133	0.049460	10.538860	30.749111	-1302.371368	-1015.087005
123.97	-0.000133	0.049508	10.538826	22.768128	-1119.418598	-1015.818387
124.48	-0.000133	0.049498	10.538623	13.559960	-912.136471	-1020.289113
124.99	-0.000133	0.049492	10.538329	13.514924	-917.894226	-1026.770391
125.50	-0.000093	0.049450	10.538211	13.214327	-913.680448	-1029.351525
126.01	-0.000079	0.049447	10.537674	13.192281	-925.568549	-1041.175743
126.52	-0.000038	0.049422	10.538169	13.018150	-910.142627	-1030.284535
127.03	-0.000028	0.049419	10.538260	12.998069	-907.569990	-1028.271438
127.54	-0.000012	0.049316	10.538618	12.259496	-882.317476	-1020.400938
128.05	0.000000	0.049011	10.538864	10.087096	-826.634858	-1014.987812
128.56	0.000000	0.048221	10.539239	4.449911	-688.217235	-1006.735037
129.08	0.000000	0.046701	10.539548	-6.394383	-431.455863	-999.934242
129.59	-0.000252	0.044172	10.539026	-24.442203	-28.041801	-1011.419818
130.10	-0.000191	0.040642	10.541773	-49.623150	614.959475	-950.995187
130.61	-0.000152	0.036249	10.542129	-80.968904	1344.739186	-943.162499
131.12	-0.000156	0.031365	10.540194	-115.819527	2102.355142	-985.738598
131.63	-0.000086	0.026298	10.518413	-151.966124	2432.097631	-1464.923076
132.14	-0.000042	0.021412	10.498795	-186.827022	2782.150312	-1896.501468
132.65	-0.000088	0.016879	10.498971	-219.168619	3530.691360	-1892.639542
133.16	-0.000075	0.012891	10.507916	-247.626185	4392.078150	-1695.845731
133.67	-0.000076	0.009472	10.510060	-272.021133	5003.083256	-1648.683002
134.18	-0.000137	0.006700	10.510058	-291.800231	5458.339812	-1648.732138
134.69	-0.000162	0.004490	10.510051	-307.567463	5821.140502	-1648.880547
135.20	-0.000115	0.002830	10.510052	-313.242780	5951.814229	-1648.852065
135.71	-0.000127	0.001579	10.510051	-318.058256	6062.635100	-1648.880420
136.22	-0.000193	0.000702	10.510050	-324.924459	6220.677849	-1648.894634
136.73	-0.000151	0.000053	10.510053	-337.784221	6516.771260	-1648.831587
137.24	-0.000172	-0.000378	10.510055	-362.873364	7094.347145	-1648.800688
137.75	-0.000223	-0.000703	10.510056	-428.987429	8616.300767	-1648.771630
138.26	-0.000177	-0.000910	10.510059	-700.862163	14874.836390	-1648.702723
138.77	-0.000175	-0.001075	10.510064	-815.520792	17514.356227	-1648.590713
139.28	-0.000195	-0.001176	10.510062	-879.952361	18997.493555	-1648.643506
139.79	-0.000142	-0.001276	10.510058	-1170.301577	25681.139837	-1648.732547
140.30	-0.000154	-0.001334	10.510056	-1904.270838	42576.818204	-1648.773522
140.81	-0.000145	-0.001380	10.510056	4808.408562	-111946.763806	-1648.772076
141.32	-0.000161	-0.001374	10.510056	591.904110	-14884.270564	-1648.769080
141.83	-0.000140	-0.001349	10.510064	573.824807	-14467.907430	-1648.593802
142.34	-0.000156	-0.001267	10.510053	170.535417	-5184.567334	-1648.826264
142.85	-0.000127	-0.001197	10.510049	-26.737897	-643.513785	-1648.931824
143.36	-0.000124	-0.001096	10.510049	-103.343614	1119.939867	-1648.916318
143.87	-0.000115	-0.001028	10.510050	-132.838888	1798.925002	-1648.902957
144.38	-0.000109	-0.000947	10.510049	-149.064868	2172.430465	-1648.913483
144.89	-0.000109	-0.000912	10.510050	-156.210610	2336.936689	-1648.900422
