Length [m]	OTDR [V]	Brillouin intensity [V]	Fitted Frequency [GHz]	Temperature [”]	Compensated Strain [レュ]	Uncompensated Strain [レュ]
0.51	0.006881	0.041671	10.505527	-153.551235	2201.336644	-1748.400076
1.02	0.006951	0.045424	10.484184	-129.689950	1159.813937	-2217.954212
1.53	0.006890	0.048616	10.470724	-87.708654	-117.008596	-2514.072546
2.04	0.006927	0.051261	10.460092	-48.826810	-1257.264151	-2747.978463
2.55	0.006930	0.053477	10.450283	-27.170739	-1982.007937	-2963.778934
3.06	0.006909	0.055293	10.445951	-21.754546	-2206.588604	-3059.075722
3.57	0.006909	0.056830	10.443040	-27.684069	-2137.228713	-3123.116819
4.08	0.006876	0.058093	10.442052	-29.391352	-2120.715986	-3144.854718
4.59	0.006907	0.059155	10.441843	-11.128828	-2545.924524	-3149.444423
5.10	0.006902	0.060000	10.440702	13.832584	-3146.846742	-3174.550312
5.61	0.006973	0.060683	10.440301	32.357279	-3582.542574	-3183.386993
6.12	0.006931	0.061151	10.441174	32.452014	-3564.575523	-3164.167875
6.63	0.006973	0.061503	10.441913	19.811365	-3256.552280	-3147.913499
7.14	0.006911	0.061733	10.440994	3.335325	-2898.479285	-3168.136099
7.65	0.006909	0.061922	10.441928	-1.929330	-2755.745793	-3147.586201
8.16	0.006903	0.062046	10.441640	7.372915	-2976.525761	-3153.925337
8.67	0.006926	0.062160	10.439944	26.977020	-3466.919566	-3191.236393
9.18	0.006924	0.062203	10.439457	42.420930	-3833.658723	-3201.944590
9.69	0.006964	0.062220	10.440052	49.982011	-3993.999126	-3188.863584
10.20	0.006896	0.062158	10.440340	47.126135	-3921.618584	-3182.530371
10.71	0.006888	0.062123	10.440129	44.373946	-3863.115970	-3187.158565
11.22	0.006868	0.062081	10.438065	43.026501	-3879.692703	-3232.559156
11.73	0.006872	0.062089	10.437110	49.161482	-4042.950389	-3253.576097
12.24	0.006874	0.062099	10.438138	55.636589	-4168.289850	-3230.953964
12.75	0.006923	0.062138	10.439246	59.317131	-4227.471510	-3206.588208
13.26	0.006889	0.062111	10.439315	55.254669	-4132.360872	-3205.067539
13.77	0.006901	0.062067	10.440116	50.704327	-4009.132367	-3187.438233
14.28	0.006860	0.061987	10.440443	42.830067	-3820.337122	-3180.252977
14.79	0.006859	0.061952	10.440752	37.495888	-3690.428005	-3173.462941
15.30	0.006838	0.061920	10.440467	29.389746	-3510.388945	-3179.722053
15.81	0.006848	0.061946	10.439425	24.615572	-3424.532089	-3202.656780
16.32	0.006812	0.061966	10.439483	21.271875	-3346.226953	-3201.383909
16.83	0.006763	0.061984	10.440638	22.271161	-3342.583067	-3175.965099
17.34	0.006658	0.061954	10.439663	24.357328	-3413.093453	-3197.416070
17.85	0.006558	0.061938	10.439034	29.896460	-3555.115163	-3211.259907
18.36	0.006443	0.061893	10.438348	31.884998	-3616.707687	-3226.347872
18.87	0.006366	0.061874	10.437809	31.269657	-3614.977448	-3238.209403
19.38	0.006276	0.061842	10.439652	29.022613	-3520.747521	-3197.664870
19.89	0.006237	0.061853	10.441128	31.905049	-3553.056426	-3165.190328
20.40	0.006182	0.061836	10.441741	38.125761	-3682.115584	-3151.702579
20.91	0.006168	0.061833	10.442356	45.630724	-3840.697832	-3138.176751
21.42	0.006107	0.061803	10.441995	51.130088	-3975.599461	-3146.101934
21.93	0.006106	0.061800	10.441262	53.819401	-4054.410183	-3162.226416
22.44	0.006061	0.061787	10.441618	47.229632	-3894.510299	-3154.398992
22.95	0.006064	0.061809	10.442638	41.700623	-3743.719593	-3131.968109
23.46	0.006046	0.061809	10.441908	37.919402	-3673.501208	-3148.016623
23.97	0.006067	0.061843	10.441658	38.279186	-3687.545303	-3153.513027
24.48	0.006054	0.061826	10.441418	38.464455	-3697.352098	-3158.799518
24.99	0.006083	0.061816	10.441979	41.173598	-3746.792212	-3146.471801
25.50	0.006048	0.061763	10.441482	38.180366	-3689.343447	-3157.398233
26.02	0.006063	0.061718	10.440965	34.838627	-3624.328706	-3168.760138
26.53	0.006037	0.061653	10.440873	29.625110	-3506.439837	-3170.786708
27.04	0.006048	0.061630	10.440310	29.099785	-3507.340553	-3183.181293
27.55	0.006051	0.061606	10.440257	29.839560	-3525.600766	-3184.355411
28.06	0.006083	0.061634	10.441446	34.139008	-3597.129866	-3158.177649
28.57	0.006073	0.061645	10.442047	36.929410	-3647.520287	-3144.972102
29.08	0.006090	0.061678	10.441252	40.537892	-3748.906102	-3162.447439
29.59	0.006060	0.061677	10.440796	39.891489	-3744.556570	-3172.492489
30.10	0.006064	0.061697	10.440764	39.777195	-3742.659241	-3173.192356
30.61	0.006038	0.061675	10.441011	38.873628	-3716.169031	-3167.764237
31.12	0.006049	0.061662	10.441831	40.563383	-3736.143064	-3149.712976
31.63	0.006043	0.061624	10.441843	41.159001	-3749.571799	-3149.443800
32.14	0.006068	0.061577	10.442055	41.910314	-3761.995898	-3144.797455
32.65	0.006044	0.061520	10.442659	40.694931	-3720.069470	-3131.491689
33.16	0.006055	0.061447	10.443296	39.231004	-3671.689868	-3117.487872
33.67	0.006024	0.061417	10.443786	36.903095	-3606.810654	-3106.716808
34.18	0.006039	0.061381	10.443800	34.288799	-3546.293625	-3106.395502
34.69	0.006026	0.061403	10.444035	37.915067	-3624.362198	-3101.237859
35.20	0.006056	0.061389	10.444346	34.067692	-3528.617967	-3094.389813
35.71	0.006053	0.061409	10.444391	37.492605	-3606.429521	-3093.408467
36.22	0.006075	0.061384	10.444902	35.331571	-3544.881467	-3082.150661
36.73	0.006056	0.061379	10.445213	35.102180	-3532.436808	-3075.316747
37.24	0.006065	0.061341	10.444159	36.029126	-3578.083473	-3098.504931
37.75	0.006046	0.061325	10.444247	35.953646	-3574.306247	-3096.559248
38.26	0.006057	0.061290	10.444452	37.520132	-3605.640233	-3092.051096
38.77	0.006051	0.061260	10.444325	35.656705	-3565.686293	-3094.857012
39.28	0.006078	0.061221	10.444108	35.693059	-3571.525935	-3099.629211
39.79	0.006064	0.061174	10.444540	31.583532	-3466.948366	-3090.111455
40.30	0.006071	0.061135	10.444646	33.563700	-3510.093840	-3087.786495
40.81	0.006047	0.061097	10.444421	31.109466	-3458.792933	-3092.741759
41.32	0.006042	0.061087	10.445118	34.346152	-3517.229995	-3077.412176
41.83	0.006026	0.061082	10.444929	34.464539	-3524.296104	-3081.552967
42.34	0.006045	0.061107	10.445258	34.949506	-3527.890817	-3074.332801
42.85	0.006025	0.061111	10.445778	33.698157	-3487.094602	-3062.894910
43.36	0.006057	0.061121	10.445832	33.871481	-3489.838891	-3061.706765
43.87	0.006029	0.061101	10.444849	31.619809	-3460.672688	-3083.328470
44.38	0.006047	0.061102	10.443952	35.292142	-3565.892949	-3103.059427
44.89	0.006030	0.061086	10.444455	35.630032	-3562.066550	-3091.989838
45.40	0.006047	0.061105	10.444994	36.792205	-3576.385275	-3080.128875
45.91	0.006029	0.061109	10.445247	36.617992	-3566.536467	-3074.559522
46.42	0.006054	0.061133	10.445419	36.676346	-3563.918472	-3070.780835
46.93	0.006036	0.061121	10.445296	33.952315	-3504.046562	-3073.484540
47.44	0.006050	0.061119	10.445483	35.769900	-3541.583006	-3069.379162
47.95	0.006027	0.061084	10.445929	34.904979	-3511.388693	-3059.569082
48.46	0.006037	0.061084	10.446240	37.111640	-3555.002185	-3052.717114
48.97	0.006013	0.061059	10.447626	37.017684	-3520.870203	-3022.221577
49.48	0.006025	0.061046	10.453923	38.096499	-3400.490891	-2883.701893
49.99	0.006006	0.060973	10.474902	37.095676	-2893.608047	-2422.160410
50.50	0.006026	0.060855	10.506708	38.343415	-2188.781301	-1722.424031
51.01	0.006010	0.060577	10.535240	39.335513	-1553.579078	-1094.716352
51.53	0.006029	0.060149	10.555248	42.600386	-1167.283810	-654.535397
52.04	0.006007	0.059509	10.561466	44.262999	-1062.162641	-517.751179
52.55	0.006031	0.058745	10.564350	46.143059	-1038.929686	-454.305711
53.06	0.006008	0.057867	10.565704	44.979661	-980.909746	-424.506758
53.57	0.006034	0.056999	10.565879	44.636600	-968.981035	-420.661037
54.08	0.006018	0.056144	10.566380	41.256341	-879.605293	-409.630711
54.59	0.006045	0.055390	10.567381	39.454026	-815.046757	-387.624255
55.10	0.006030	0.054702	10.567164	35.589391	-731.085187	-392.394739
55.61	0.006050	0.054133	10.566746	35.413600	-736.676062	-401.588003
56.12	0.006021	0.053642	10.567792	32.064391	-635.456766	-378.578245
56.63	0.006040	0.053264	10.568492	32.239889	-623.359048	-363.184492
57.14	0.006012	0.052947	10.568296	29.807643	-571.877193	-367.484324
57.65	0.006025	0.052721	10.568449	29.349479	-557.811571	-364.127679
58.16	0.006007	0.052522	10.568144	26.719270	-504.291337	-370.830089
58.67	0.006021	0.052400	10.568259	26.650604	-500.054190	-368.296055
59.18	0.006004	0.052277	10.568485	24.043309	-434.829799	-363.330641
59.69	0.006014	0.052198	10.568555	25.548513	-467.856364	-361.782736
60.20	0.005998	0.052106	10.568962	24.068714	-424.402339	-352.825971
60.71	0.006013	0.052042	10.568736	25.169673	-454.969422	-357.808597
61.22	0.005990	0.051965	10.568389	23.975028	-435.460435	-365.431561
61.73	0.006010	0.051943	10.569000	23.644793	-413.784168	-352.005952
62.24	0.005993	0.051905	10.569530	21.464643	-351.362519	-340.334587
62.75	0.006008	0.051898	10.569115	21.983505	-372.880877	-349.467599
63.26	0.005994	0.051868	10.568779	20.784959	-353.052838	-356.871894
63.77	0.006004	0.051860	10.569142	22.484118	-383.777206	-348.868919
64.28	0.006009	0.051835	10.569188	22.102932	-373.950989	-347.865940
64.79	0.006129	0.051834	10.569579	23.622986	-399.930932	-339.270136
65.30	0.006381	0.051809	10.569443	22.795719	-384.015266	-342.253694
65.81	0.006998	0.051814	10.569214	23.217174	-398.995364	-347.288746
66.32	0.008019	0.051780	10.569129	21.466305	-360.646330	-349.153972
66.83	0.009452	0.051769	10.569059	22.822538	-393.485439	-350.698443
67.34	0.010942	0.051729	10.569942	21.905815	-352.013000	-331.267597
67.85	0.012083	0.051694	10.569857	23.524188	-391.245591	-333.154593
68.36	0.012589	0.051642	10.569111	22.242409	-378.944197	-349.566265
68.87	0.012412	0.051620	10.569327	22.857249	-388.117255	-344.815493
69.38	0.011716	0.051580	10.568918	20.777626	-349.660398	-353.796842
69.89	0.010757	0.051581	10.568779	21.005562	-358.115273	-356.856835
70.40	0.009751	0.051554	10.568845	19.481079	-321.495000	-355.400049
70.91	0.008885	0.051552	10.568853	20.604077	-347.170747	-355.232852
71.42	0.008171	0.051514	10.569432	19.801429	-315.353001	-342.506731
71.93	0.007658	0.051495	10.570109	20.774494	-322.125004	-327.599465
72.44	0.007259	0.051466	10.570010	19.925687	-304.872728	-329.781022
72.95	0.007004	0.051492	10.570013	20.492132	-317.848163	-329.720022
73.46	0.006790	0.051517	10.570016	19.067640	-284.976034	-329.642941
73.97	0.006668	0.051603	10.569547	20.486995	-328.473873	-339.968746
74.48	0.006544	0.051667	10.569456	20.527292	-331.490407	-341.961382
74.99	0.006488	0.051757	10.569428	22.563022	-379.003828	-342.582957
75.50	0.006415	0.051800	10.569997	23.161107	-379.660611	-330.076365
76.01	0.006391	0.051851	10.569569	24.467084	-419.594786	-339.492390
76.52	0.006347	0.051865	10.569612	23.459405	-395.390930	-338.531409
77.03	0.006339	0.051894	10.569975	24.827802	-418.519011	-330.545353
77.55	0.006300	0.051882	10.570028	22.846765	-371.695561	-329.380959
78.06	0.006303	0.051885	10.569815	24.508267	-414.857415	-334.069074
78.57	0.006279	0.051842	10.570276	23.142854	-372.789205	-323.922504
79.08	0.006286	0.051813	10.570908	23.964142	-377.119222	-310.018624
79.59	0.006261	0.051758	10.571057	22.545751	-341.028063	-306.736922
80.10	0.006277	0.051726	10.570627	23.394317	-370.488486	-316.206072
80.61	0.006261	0.051690	10.569777	21.665800	-350.297411	-334.901461
81.12	0.006284	0.051700	10.570516	22.800944	-359.399084	-318.657461
81.63	0.006274	0.051697	10.570583	21.955106	-338.361517	-317.163012
82.14	0.006305	0.051730	10.569753	23.554367	-394.339184	-335.442918
82.65	0.006303	0.051743	10.570051	23.084694	-376.649160	-328.881640
83.16	0.006326	0.051772	10.570449	24.717119	-405.040395	-320.118486
83.67	0.006322	0.051776	10.570794	24.024568	-381.155240	-312.541735
84.18	0.006342	0.051802	10.570376	25.341292	-421.106936	-321.738476
84.69	0.006331	0.051803	10.570218	24.151466	-397.355470	-325.208721
85.20	0.006345	0.051831	10.569892	25.324019	-431.870406	-332.385103
85.71	0.006332	0.051829	10.570743	24.117018	-384.444920	-313.649702
86.22	0.006351	0.051832	10.571139	25.471388	-406.499923	-304.948051
86.73	0.006308	0.051784	10.571098	23.719311	-367.096715	-305.834251
87.24	0.006285	0.051751	10.571572	24.892739	-383.188212	-295.417200
87.75	0.006201	0.051667	10.571078	22.693138	-343.945097	-306.283089
88.26	0.006134	0.051596	10.571348	23.194180	-349.251675	-300.342891
88.77	0.006055	0.051516	10.571122	20.998517	-303.925050	-305.319209
89.28	0.006102	0.051549	10.570512	22.121542	-343.847526	-318.741454
89.79	0.006161	0.051663	10.571872	21.700299	-302.767705	-288.805094
90.30	0.006179	0.051813	10.572873	24.484874	-343.801599	-266.802254
90.81	0.006180	0.051861	10.572391	23.725763	-337.428499	-277.391912
91.32	0.006226	0.051828	10.572103	25.136826	-376.570341	-283.744584
91.83	0.006254	0.051764	10.571744	23.930537	-357.081749	-291.642706
92.34	0.006254	0.051747	10.571477	24.919860	-386.002290	-297.506038
92.85	0.006266	0.051698	10.571688	23.721768	-353.559302	-292.866892
93.36	0.006266	0.051687	10.572570	24.641953	-354.395776	-273.458854
93.87	0.006269	0.051660	10.571924	23.859315	-351.280885	-287.673153
94.38	0.006283	0.051666	10.572204	24.899758	-368.782804	-281.521697
94.89	0.006292	0.051636	10.572115	23.754258	-344.465085	-283.478436
95.40	0.006304	0.051612	10.571680	24.998763	-383.130870	-293.034375
95.91	0.006304	0.051572	10.570917	23.500639	-366.249522	-309.827831
96.42	0.006308	0.051587	10.570870	24.636461	-393.476814	-310.859050
96.93	0.006308	0.051595	10.571001	23.773811	-370.596944	-307.976380
97.44	0.006310	0.051615	10.571661	24.757836	-378.028584	-293.457692
97.95	0.006321	0.051555	10.571119	23.730849	-366.886184	-305.380059
98.46	0.006325	0.051474	10.569448	22.846229	-385.057597	-342.138860
98.97	0.006325	0.051367	10.566344	15.031583	-276.754826	-410.426719
99.48	0.006327	0.051351	10.561880	0.995633	-56.619677	-508.648071
99.99	0.006329	0.051407	10.555419	-28.578386	475.157168	-650.786558
100.50	0.006330	0.051565	10.546462	-67.198165	1157.606276	-847.829944
101.01	0.006330	0.051737	10.538596	-107.512719	1904.205023	-1020.895512
101.52	0.006330	0.051941	10.533568	-138.167718	2493.928145	-1131.495542
102.03	0.006330	0.052091	10.528310	-156.543362	2795.658986	-1247.175788
102.54	0.006330	0.052257	10.524852	-163.287191	2871.143244	-1323.255804
103.06	0.006330	0.052415	10.523151	-160.252296	2762.039892	-1360.688108
103.57	0.006330	0.052634	10.522575	-148.881936	2487.030918	-1373.343728
104.08	0.006330	0.052841	10.522183	-131.195363	2070.833731	-1381.984515
104.59	0.006330	0.053036	10.523476	-108.992539	1589.562385	-1353.529453
105.10	0.006330	0.053134	10.525826	-86.157024	1118.100492	-1301.824133
105.61	0.006330	0.053188	10.528883	-63.863730	675.409939	-1234.580069
106.12	0.006335	0.053155	10.531845	-45.649129	324.434791	-1169.410477
106.63	0.006339	0.053146	10.533567	-29.609811	-5.067672	-1131.524101
107.14	0.006344	0.053136	10.535502	-18.418715	-218.052050	-1088.950516
107.65	0.006368	0.053180	10.536489	-8.079015	-433.320302	-1067.250995
108.16	0.006369	0.053217	10.537555	-1.804215	-553.166391	-1043.787150
108.67	0.006398	0.053261	10.538678	4.870800	-680.926811	-1019.084696
109.18	0.006423	0.053257	10.539034	7.804618	-740.257359	-1011.257958
109.69	0.006424	0.053268	10.538940	11.809528	-834.601249	-1013.310983
110.20	0.007247	0.053247	10.539431	12.974263	-850.107802	-1002.526846
110.71	0.016008	0.053275	10.539683	15.595530	-904.621791	-996.968760
111.22	0.059248	0.053317	10.538792	16.328557	-942.061734	-1016.586681
111.73	0.154781	0.053397	10.538818	19.029619	-1003.639364	-1016.014445
112.24	0.154781	0.053456	10.539391	19.261006	-995.738305	-1003.396651
112.75	0.154781	0.053527	10.539339	21.114141	-1039.592134	-1004.536848
113.26	0.154781	0.053553	10.539666	20.894176	-1026.989571	-997.345325
113.77	0.154781	0.053595	10.539330	22.622606	-1074.523268	-1004.734111
114.28	0.154781	0.053593	10.538753	21.659281	-1065.659575	-1017.432228
114.79	0.154781	0.053616	10.539361	22.773037	-1077.275438	-1004.056160
115.30	0.154781	0.053603	10.539105	21.334309	-1050.066900	-1009.694198
115.81	0.154781	0.053593	10.538931	21.819157	-1065.233646	-1013.515275
116.32	0.154781	0.053533	10.538969	19.673428	-1014.971862	-1012.687444
116.83	0.154781	0.053515	10.538484	19.685026	-1026.416760	-1023.350120
117.34	0.154781	0.053472	10.539033	18.096351	-977.179635	-1011.267598
117.85	0.154781	0.053462	10.539702	18.247970	-965.237286	-996.546400
118.36	0.154781	0.053429	10.539652	16.921881	-935.864628	-997.646685
118.87	0.154781	0.053404	10.539933	17.355927	-939.393693	-991.482054
119.38	0.154781	0.053345	10.539783	16.190630	-916.022624	-994.776511
119.89	0.154781	0.053320	10.539465	16.741299	-936.025941	-1001.765882
120.40	0.154781	0.053293	10.540314	15.508381	-888.064676	-983.088509
120.91	0.154781	0.053329	10.539375	18.131755	-970.114645	-1003.750856
121.42	0.154781	0.053359	10.538696	19.673860	-1021.261346	-1018.677517
121.93	0.154781	0.053419	10.538964	24.917158	-1135.791283	-1012.792887
122.44	0.104496	0.053456	10.539397	29.113353	-1222.406564	-1003.273214
122.95	0.066464	0.053505	10.539530	34.259574	-1337.795204	-1000.339384
123.46	0.037485	0.053527	10.539607	31.529198	-1273.177230	-998.655120
123.97	0.016002	0.053571	10.539304	28.307808	-1205.990723	-1005.302672
124.48	0.001184	0.053585	10.539281	27.345812	-1184.383294	-1005.815305
124.99	0.000000	0.053615	10.538827	27.470401	-1197.734645	-1015.815424
125.50	0.000000	0.053627	10.538637	24.846048	-1141.700977	-1019.991662
126.01	0.000000	0.053651	10.539131	23.411972	-1097.299131	-1009.126775
126.52	0.000000	0.053647	10.539175	23.384220	-1095.647487	-1008.160652
127.03	0.000000	0.053663	10.539403	22.775440	-1076.374741	-1003.144212
127.54	0.000000	0.053645	10.539570	22.657265	-1069.798058	-999.465638
128.05	0.000000	0.053634	10.539510	22.395296	-1065.146219	-1000.780680
128.56	0.000000	0.053588	10.539011	21.270980	-1050.781390	-1011.766370
129.08	0.000000	0.053549	10.538691	20.518027	-1040.827800	-1018.805367
129.59	-0.003452	0.053474	10.539061	19.343882	-1005.269419	-1010.668591
130.10	0.001110	0.053438	10.539225	19.100485	-995.877994	-1007.054706
130.61	0.004710	0.053389	10.539438	18.556059	-978.430272	-1002.366048
131.12	0.007183	0.053399	10.539573	18.623644	-976.881336	-999.404441
131.63	0.008266	0.053396	10.539139	18.471519	-983.385760	-1008.949497
132.14	0.007972	0.053432	10.539148	18.074830	-974.049794	-1008.754591
132.65	0.006326	0.053433	10.539353	17.865262	-964.491587	-1004.238794
133.16	0.003606	0.053446	10.540758	17.952255	-934.074703	-973.313736
133.67	0.000054	0.053407	10.544623	17.567271	-836.090365	-888.299674
134.18	-0.003977	0.053385	10.548160	17.357950	-749.699594	-810.487463
134.69	-0.008071	0.053318	10.549453	16.840902	-707.977373	-782.042054
135.20	-0.011688	0.053273	10.551424	16.537481	-655.526192	-738.671304
135.71	-0.014573	0.053186	10.556384	15.959461	-527.833239	-629.556829
136.22	-0.016493	0.053098	10.562118	15.372985	-382.087762	-503.407648
136.73	-0.017370	0.052972	10.566310	14.536343	-266.138810	-411.174811
137.24	-0.017126	0.052870	10.566814	13.852631	-238.780870	-400.091278
137.75	-0.015887	0.052736	10.563121	12.965322	-303.536526	-481.346057
138.26	-0.013785	0.052645	10.561346	12.359694	-330.519400	-520.383878
138.77	-0.011090	0.052540	10.564347	11.658363	-245.165058	-454.364180
139.28	-0.008014	0.052482	10.567527	11.269091	-162.860708	-384.401486
139.79	-0.004851	0.052417	10.569139	10.837435	-115.762144	-348.952488
140.30	-0.001997	0.052399	10.567473	10.418503	-144.521897	-385.585696
140.81	0.000320	0.052369	10.562530	10.039864	-249.823814	-494.348109
141.32	0.001974	0.052394	10.561655	9.883951	-266.416858	-513.599925
141.83	0.002857	0.052392	10.564798	8.577880	-163.855771	-444.445827
142.34	0.003021	0.052430	10.569121	8.783257	-68.885522	-349.343432
142.85	0.002480	0.052422	10.571222	7.155961	17.041614	-303.110191
143.36	0.001376	0.052424	10.568971	5.829290	-4.350049	-352.647618
143.87	-0.000130	0.052373	10.564293	5.452862	-103.573502	-455.563176
144.38	-0.001835	0.052340	10.563601	-33.794402	783.942011	-470.771363
144.89	-0.003659	0.052279	10.567255	-200.610721	4708.272644	-390.380032
145.40	-0.005496	0.052245	10.570008	-301.121915	7085.480124	-329.831693
145.91	-0.006550	0.052194	10.571368	-324.082526	7645.399346	-299.904047
