Length [m]	OTDR [V]	Brillouin intensity [V]	Fitted Frequency [GHz]	Temperature [”]	Compensated Strain [レュ]	Uncompensated Strain [レュ]
0.51	0.006990	0.049037	10.465441	-142.408520	985.802998	-2630.287865
1.02	0.007059	0.052614	10.443439	-121.403773	-5.162949	-3114.341156
1.53	0.007035	0.055640	10.435095	-87.220650	-984.477916	-3297.902226
2.04	0.007080	0.058253	10.432465	-47.901058	-1950.261238	-3355.765872
2.55	0.007077	0.060502	10.432490	-21.706748	-2552.664286	-3355.211652
3.06	0.007089	0.062420	10.431994	-12.122674	-2784.742677	-3366.139850
3.57	0.007020	0.063998	10.431755	-19.542867	-2619.443151	-3371.396617
4.08	0.007006	0.065266	10.431795	-22.695345	-2545.934305	-3370.500050
4.59	0.006954	0.066253	10.432264	-12.823634	-2762.382094	-3360.202061
5.10	0.006983	0.067048	10.432283	10.221889	-3292.427306	-3359.768177
5.61	0.007012	0.067680	10.431601	28.782282	-3735.421496	-3374.782929
6.12	0.007072	0.068169	10.430735	35.629072	-3913.009614	-3393.839440
6.63	0.007057	0.068505	10.430545	25.604411	-3686.624811	-3398.017023
7.14	0.007057	0.068735	10.429827	11.119716	-3369.737883	-3413.800138
7.65	0.007001	0.068857	10.430621	0.295322	-3102.265613	-3396.345178
8.16	0.006997	0.068918	10.431676	6.354455	-3217.400737	-3373.123268
8.67	0.006991	0.068960	10.431698	23.137770	-3603.249676	-3372.648954
9.18	0.007064	0.069009	10.431901	43.108888	-4058.286221	-3368.173468
9.69	0.007087	0.069039	10.431457	51.685421	-4265.969453	-3377.955172
10.20	0.007115	0.069046	10.431413	51.592229	-4264.818515	-3378.903655
10.71	0.007062	0.069013	10.431068	43.414424	-4084.524400	-3386.493063
11.22	0.007025	0.068938	10.430896	40.623156	-4024.241013	-3390.280685
11.73	0.006958	0.068832	10.429915	43.945604	-4123.351262	-3411.866263
12.24	0.006966	0.068732	10.429123	53.951580	-4371.960236	-3429.298716
12.75	0.006987	0.068664	10.429311	56.843225	-4434.188166	-3425.161858
13.26	0.007046	0.068650	10.430065	54.939715	-4372.969657	-3408.563574
13.77	0.007049	0.068661	10.430600	45.903241	-4152.613794	-3396.793020
14.28	0.007058	0.068688	10.431814	38.447624	-3952.987079	-3370.082761
14.79	0.006997	0.068716	10.432500	32.264046	-3794.826499	-3354.995118
15.30	0.006969	0.068736	10.431501	30.529855	-3777.950165	-3376.977050
15.81	0.006923	0.068743	10.430209	28.088435	-3751.552992	-3405.406724
16.32	0.006923	0.068776	10.430540	28.206969	-3746.639424	-3398.116815
16.83	0.006880	0.068811	10.430939	24.582321	-3654.005798	-3389.345212
17.34	0.006841	0.068834	10.430987	23.634731	-3631.089099	-3388.292575
17.85	0.006720	0.068834	10.431287	25.595851	-3669.296682	-3381.675592
18.36	0.006619	0.068809	10.430943	31.445820	-3811.910276	-3389.258482
18.87	0.006480	0.068756	10.431695	33.449078	-3840.676852	-3372.710386
19.38	0.006393	0.068697	10.433005	37.287617	-3898.823230	-3343.887698
19.89	0.006321	0.068643	10.432980	37.032204	-3893.515598	-3344.433213
20.40	0.006307	0.068597	10.433579	41.295313	-3977.851227	-3331.269624
20.91	0.006264	0.068565	10.434572	37.982451	-3878.684851	-3309.420028
21.42	0.006260	0.068519	10.435034	45.002917	-4029.629724	-3299.247736
21.93	0.006207	0.068451	10.434607	47.231219	-4090.777868	-3308.646919
22.44	0.006192	0.068367	10.434470	45.424743	-4052.344990	-3311.653234
22.95	0.006153	0.068263	10.434094	46.166812	-4078.103864	-3319.929988
23.46	0.006160	0.068190	10.434580	38.040615	-3879.836161	-3309.241080
23.97	0.006150	0.068140	10.434856	37.396885	-3858.640849	-3303.158143
24.48	0.006192	0.068144	10.434012	33.669950	-3792.329431	-3321.741507
24.99	0.006196	0.068174	10.434012	32.078876	-3755.687976	-3321.726748
25.50	0.006227	0.068223	10.434475	34.550504	-3801.922626	-3311.556793
26.02	0.006202	0.068267	10.434498	34.306844	-3795.773853	-3311.041878
26.53	0.006204	0.068298	10.434836	33.921412	-3779.098701	-3303.598889
27.04	0.006169	0.068316	10.434794	32.279061	-3742.260015	-3304.521976
27.55	0.006190	0.068327	10.435319	33.935346	-3768.285962	-3292.978605
28.06	0.006182	0.068318	10.435945	28.609007	-3631.233815	-3279.202637
28.57	0.006215	0.068309	10.435912	35.514213	-3790.968996	-3279.946409
29.08	0.006209	0.068298	10.435770	34.188370	-3763.703070	-3283.050921
29.59	0.006221	0.068295	10.435605	38.659435	-3870.446983	-3286.696280
30.10	0.006182	0.068273	10.435033	39.363326	-3899.833213	-3299.271530
30.61	0.006184	0.068239	10.435222	41.539034	-3945.567472	-3295.122219
31.12	0.006148	0.068183	10.435339	37.952304	-3860.291524	-3292.536535
31.63	0.006166	0.068128	10.435669	43.142555	-3972.162813	-3285.280623
32.14	0.006164	0.068036	10.436637	35.009980	-3762.632281	-3263.988098
32.65	0.006190	0.067978	10.437125	41.140419	-3892.485121	-3253.239709
33.16	0.006187	0.067891	10.437889	35.494205	-3744.903520	-3236.443647
33.67	0.006204	0.067879	10.439067	38.869077	-3795.412448	-3210.517016
34.18	0.006171	0.067817	10.439357	34.255053	-3682.530158	-3204.155396
34.69	0.006183	0.067851	10.439472	39.526945	-3801.224863	-3201.615672
35.20	0.006163	0.067807	10.439747	35.564909	-3703.683055	-3195.570693
35.71	0.006197	0.067852	10.440108	37.101567	-3730.731851	-3187.629867
36.22	0.006192	0.067809	10.440475	34.458895	-3661.429067	-3179.550888
36.73	0.006213	0.067840	10.440561	34.775908	-3666.739647	-3177.655518
37.24	0.006195	0.067785	10.441020	33.836826	-3634.546032	-3167.566753
37.75	0.006203	0.067784	10.441566	37.501690	-3706.315020	-3155.552396
38.26	0.006176	0.067710	10.441617	37.857388	-3713.317513	-3154.421480
38.77	0.006186	0.067693	10.441177	40.593964	-3786.473251	-3164.113826
39.28	0.006176	0.067631	10.440491	38.673462	-3758.084187	-3179.204821
39.79	0.006209	0.067628	10.440082	37.088296	-3731.018773	-3188.194964
40.30	0.006192	0.067602	10.440494	33.714626	-3643.855669	-3179.130605
40.81	0.006210	0.067612	10.440805	34.587047	-3656.777901	-3172.300072
41.32	0.006182	0.067617	10.441876	34.611730	-3632.643956	-3148.736569
41.83	0.006190	0.067636	10.442213	37.739112	-3696.848024	-3141.308333
42.34	0.006162	0.067632	10.442096	37.904980	-3703.374161	-3143.891428
42.85	0.006182	0.067642	10.442879	38.298222	-3694.360839	-3126.658535
43.36	0.006166	0.067626	10.441938	34.269453	-3623.327900	-3147.365850
43.87	0.006190	0.067627	10.440273	33.073240	-3634.197757	-3184.001804
44.38	0.006171	0.067626	10.440592	31.604230	-3593.016175	-3176.975839
44.89	0.006186	0.067626	10.441346	34.399080	-3639.968664	-3160.393144
45.40	0.006167	0.067622	10.442252	36.356191	-3664.109867	-3140.446207
45.91	0.006183	0.067609	10.443378	39.924854	-3720.299034	-3115.682595
46.42	0.006167	0.067576	10.442848	39.254450	-3717.084754	-3127.337602
46.93	0.006192	0.067554	10.442457	38.021251	-3697.722593	-3135.947211
47.44	0.006170	0.067533	10.443455	34.715974	-3598.614375	-3113.986536
47.95	0.006193	0.067551	10.442803	34.661359	-3612.397823	-3128.333899
48.46	0.006171	0.067579	10.442674	34.349525	-3608.200248	-3131.177239
48.97	0.006183	0.067613	10.446683	37.802639	-3595.229589	-3042.979033
49.48	0.006163	0.067604	10.468670	39.264082	-3121.787999	-2559.269486
49.99	0.006174	0.067534	10.520609	41.376371	-1972.518374	-1416.592506
50.50	0.006153	0.067340	10.554485	40.289168	-1166.225613	-671.339174
51.01	0.006170	0.066976	10.562554	40.617823	-987.685802	-493.812334
51.53	0.006154	0.066384	10.565973	39.377019	-880.269575	-418.593740
52.04	0.006173	0.065563	10.567935	41.473943	-883.285107	-375.424811
52.55	0.006158	0.064544	10.568780	41.277741	-859.278149	-356.832761
53.06	0.006181	0.063442	10.569192	42.787720	-884.539008	-347.772258
53.57	0.006164	0.062341	10.569100	41.230625	-850.825101	-349.803976
54.08	0.006180	0.061319	10.569386	39.282904	-799.380371	-343.499743
54.59	0.006160	0.060438	10.569771	34.668686	-684.281784	-335.028231
55.10	0.006177	0.059709	10.569491	32.686392	-645.107129	-341.187684
55.61	0.006156	0.059129	10.569042	29.316629	-577.901301	-351.074859
56.12	0.006176	0.058686	10.569428	29.653592	-576.747735	-342.575242
56.63	0.006158	0.058346	10.569414	28.394193	-548.085938	-342.889202
57.14	0.006167	0.058078	10.569382	29.069508	-564.371496	-343.595146
57.65	0.006146	0.057860	10.569826	27.235022	-511.900565	-333.825538
58.16	0.006164	0.057683	10.569917	26.733424	-498.265823	-331.833657
58.67	0.006138	0.057537	10.569889	23.325001	-420.446708	-332.445713
59.18	0.006154	0.057436	10.570362	22.413703	-388.559226	-322.038862
59.69	0.006141	0.057359	10.570611	20.164764	-331.045192	-316.559425
60.20	0.006162	0.057318	10.570326	21.338173	-364.634901	-322.834435
60.71	0.006147	0.057293	10.570243	21.041023	-359.697495	-324.649606
61.22	0.006165	0.057268	10.570026	22.944801	-408.541046	-329.437479
61.73	0.006142	0.057239	10.570244	21.551349	-371.428100	-324.633454
62.24	0.006158	0.057214	10.570851	21.867038	-364.694814	-311.278466
62.75	0.006135	0.057181	10.570676	19.751588	-320.043275	-315.137391
63.26	0.006157	0.057188	10.570767	20.111913	-326.225720	-313.122634
63.77	0.006144	0.057197	10.570684	19.458561	-313.107991	-314.956242
64.28	0.006192	0.057214	10.570819	21.872889	-365.572335	-311.987064
64.79	0.006264	0.057229	10.570951	21.858328	-362.176776	-309.067752
65.30	0.006533	0.057237	10.571067	24.019037	-409.248545	-306.523687
65.81	0.007051	0.057223	10.571601	22.848354	-369.993408	-294.784529
66.32	0.007995	0.057217	10.571365	22.929237	-377.288918	-299.967678
66.83	0.009224	0.057193	10.571274	21.239964	-340.511375	-301.979401
67.34	0.010541	0.057177	10.571503	21.326505	-337.205285	-296.925405
67.85	0.011485	0.057151	10.571808	20.186229	-303.937652	-290.230067
68.36	0.011885	0.057152	10.571052	22.088217	-365.149120	-306.855065
68.87	0.011646	0.057148	10.571011	21.363430	-349.415620	-307.762088
69.38	0.010995	0.057163	10.571552	22.656299	-366.703915	-295.863929
69.89	0.010090	0.057185	10.571869	20.800920	-316.683437	-288.890590
70.40	0.009213	0.057219	10.571394	21.316051	-339.483036	-299.327721
70.91	0.008418	0.057237	10.570780	20.214405	-328.295479	-312.846411
71.42	0.007828	0.057257	10.570965	21.355782	-350.306381	-308.779721
71.93	0.007357	0.057245	10.571575	20.842543	-324.413381	-295.350257
72.44	0.007053	0.057227	10.571866	22.316931	-351.634879	-288.941527
72.95	0.006806	0.057201	10.571726	21.511052	-336.308814	-292.017861
73.46	0.006663	0.057162	10.571527	21.853096	-348.783248	-296.406498
73.97	0.006524	0.057133	10.571903	19.745168	-291.581244	-288.128300
74.48	0.006458	0.057113	10.572284	20.616621	-302.869084	-279.759951
74.99	0.006379	0.057104	10.572262	19.547264	-278.755400	-280.239335
75.50	0.006360	0.057103	10.572156	21.167148	-318.487835	-282.569984
76.01	0.006314	0.057090	10.572072	20.603517	-307.456346	-284.423510
76.52	0.006310	0.057064	10.572061	22.068586	-341.426101	-284.656629
77.03	0.006273	0.057038	10.572360	20.768191	-304.589605	-278.072905
77.55	0.006271	0.057013	10.572138	21.526153	-327.156900	-282.956198
78.06	0.006244	0.057005	10.571723	20.083613	-303.540301	-292.104337
78.57	0.006247	0.057010	10.571913	21.182624	-324.445507	-287.913196
79.08	0.006225	0.057028	10.572179	20.449045	-301.415391	-282.052992
79.59	0.006240	0.057037	10.572351	21.585479	-323.622453	-278.281960
80.10	0.006221	0.057036	10.572294	20.666666	-303.787914	-279.537508
80.61	0.006245	0.057016	10.572297	21.509269	-323.100332	-279.457368
81.12	0.006230	0.056984	10.572540	19.831784	-278.893516	-274.123439
81.63	0.006249	0.056963	10.572789	20.967083	-299.280120	-268.640776
82.14	0.006235	0.056947	10.572564	19.513105	-271.010597	-273.601629
82.65	0.006256	0.056955	10.572296	20.871094	-308.434916	-279.481378
83.16	0.006239	0.056980	10.572612	20.339734	-288.926668	-272.540254
83.67	0.006263	0.057016	10.572825	21.730672	-316.040178	-267.860975
84.18	0.006248	0.057059	10.572717	21.341096	-309.546369	-270.221029
84.69	0.006266	0.057110	10.572912	22.898437	-340.911596	-265.943488
85.20	0.006246	0.057148	10.573129	22.132639	-318.266577	-261.158125
85.71	0.006276	0.057189	10.572569	23.347258	-359.149043	-273.484813
86.22	0.006256	0.057192	10.572143	22.257283	-343.869804	-282.844172
86.73	0.006261	0.057182	10.571999	23.041203	-365.253101	-286.028034
87.24	0.006205	0.057128	10.571893	21.372474	-329.268698	-288.345235
87.75	0.006165	0.057074	10.572284	22.044730	-335.738495	-279.755019
88.26	0.006147	0.056999	10.572185	20.625997	-305.356557	-281.926898
88.77	0.006862	0.056965	10.572428	21.540263	-320.798930	-276.581477
89.28	0.010591	0.057013	10.572959	20.868926	-293.107974	-264.908521
89.79	0.010591	0.057167	10.572728	23.091314	-349.589093	-269.985700
90.30	0.010591	0.057313	10.572608	22.831623	-346.384068	-272.630858
90.81	0.010591	0.057361	10.572850	24.229211	-372.973681	-267.305788
91.32	0.010591	0.057276	10.573180	23.159469	-340.739706	-260.047627
91.83	0.010591	0.057191	10.573195	23.797030	-355.054224	-259.702409
92.34	0.010591	0.057119	10.572590	22.304130	-334.657982	-273.028276
92.85	0.010591	0.057078	10.572925	23.590918	-356.553410	-265.658395
93.36	0.010591	0.057063	10.573434	22.512846	-319.987877	-254.451284
93.87	0.010591	0.057062	10.572808	23.279753	-352.081273	-268.225156
94.38	0.010591	0.057038	10.573000	21.894855	-315.771844	-263.999768
94.89	0.010591	0.056976	10.573206	22.394350	-322.526784	-259.475159
95.40	0.010591	0.056866	10.573429	20.670505	-277.703132	-254.570812
95.91	0.010591	0.056783	10.573176	21.477013	-302.094146	-260.127773
96.42	0.010591	0.056742	10.572453	20.287198	-291.387364	-276.041149
96.93	0.010591	0.056758	10.572776	21.711848	-316.735198	-268.937308
97.44	0.010591	0.056781	10.573331	20.573908	-277.729359	-256.716956
97.95	0.010591	0.056788	10.573099	21.380014	-301.637164	-261.821802
98.46	0.010591	0.056752	10.569291	18.340394	-319.483727	-345.591435
98.97	0.010591	0.056706	10.562810	13.965643	-368.249015	-488.172169
99.48	0.010591	0.056678	10.557648	-0.782992	-147.791805	-601.735836
99.99	0.008720	0.056720	10.552158	-25.446611	293.320983	-722.533877
100.50	0.005489	0.056800	10.545141	-62.168653	976.828731	-876.895837
101.01	0.003182	0.056923	10.541063	-98.648306	1722.523076	-966.615172
101.52	0.001462	0.057044	10.540567	-128.338156	2394.530714	-977.530285
102.03	0.001448	0.057155	10.540894	-145.339449	2793.445276	-970.327719
102.54	0.001390	0.057247	10.542304	-151.581115	2969.637550	-939.315057
103.06	0.001274	0.057338	10.544030	-147.408214	2913.388597	-901.340283
103.57	0.001169	0.057435	10.545152	-135.664326	2668.935671	-876.646210
104.08	0.000809	0.057535	10.546894	-116.976442	2278.912306	-838.332300
104.59	0.000752	0.057599	10.549172	-95.481156	1836.643763	-788.208797
105.10	0.000174	0.057619	10.549242	-72.328416	1305.293861	-786.665141
105.61	0.000156	0.057576	10.545872	-52.398860	768.792684	-860.811802
106.12	-0.000055	0.057503	10.543399	-34.371846	296.770466	-915.228772
106.63	-0.000515	0.057453	10.542464	-21.466835	-21.853906	-935.790622
107.14	-0.000622	0.057432	10.542629	-10.035274	-281.209067	-932.170100
107.65	-0.000622	0.057462	10.542677	-2.820438	-446.178475	-931.107787
108.16	-0.000622	0.057507	10.542837	4.650390	-614.470892	-927.594085
108.67	-0.000622	0.057517	10.542705	8.221895	-699.732394	-930.500324
109.18	-0.000622	0.057507	10.542519	12.451365	-801.363273	-934.573424
109.69	-0.000622	0.057463	10.542335	13.241577	-823.806201	-938.629936
110.20	-0.000622	0.057433	10.541932	15.639912	-888.310488	-947.496893
110.71	-0.000622	0.057421	10.542064	15.774070	-888.363000	-944.601066
111.22	-0.000622	0.057443	10.542264	18.056220	-936.269678	-940.186740
111.73	-0.000622	0.057457	10.541680	18.207120	-953.211499	-953.034085
112.24	-0.000622	0.057461	10.541908	19.833476	-985.396890	-948.023450
112.75	-0.000842	0.057433	10.541905	19.473204	-977.164197	-948.081305
113.26	-0.000842	0.057384	10.541675	20.428662	-1004.477213	-953.154839
113.77	-0.000842	0.057335	10.541643	19.241317	-977.873910	-953.850191
114.28	-0.000842	0.057298	10.541580	20.115712	-999.462710	-955.243405
114.79	-0.000842	0.057274	10.541878	18.602592	-957.745908	-948.675481
115.30	-0.000842	0.057268	10.542010	19.402288	-973.128816	-945.789130
115.81	-0.000842	0.057267	10.541484	18.296267	-959.784410	-957.346490
116.32	-0.000842	0.057277	10.541402	19.170538	-981.817275	-959.165992
116.83	-0.000842	0.057275	10.541103	17.981806	-961.349686	-965.744725
117.34	-0.000660	0.057283	10.540917	19.010460	-989.301580	-969.820397
117.85	-0.000622	0.057288	10.541062	17.638881	-954.385937	-966.632109
118.36	-0.000515	0.057289	10.541557	18.491461	-962.608958	-955.754654
118.87	-0.000515	0.057283	10.541365	17.433103	-942.654087	-959.959618
119.38	-0.000515	0.057277	10.540927	18.545942	-978.380369	-969.602754
119.89	-0.000515	0.057260	10.540963	16.736964	-935.919905	-968.822060
120.40	-0.000515	0.057255	10.541734	17.831330	-943.311114	-951.841862
120.91	-0.000515	0.057259	10.541843	17.562136	-934.620229	-949.462701
121.42	-0.000515	0.057268	10.541511	20.869644	-1018.400823	-956.753294
121.93	-0.000515	0.057269	10.541153	23.216492	-1080.676135	-964.624618
122.44	-0.000515	0.057274	10.541238	24.302862	-1103.742411	-962.772528
122.95	-0.000472	0.057276	10.541578	-13.614404	-223.056625	-955.290762
123.46	-0.000413	0.057269	10.541567	-128.491865	2421.144730	-955.518272
123.97	-0.000298	0.057266	10.541288	-128.503653	2414.980304	-961.657398
124.48	-0.000199	0.057225	10.541052	-128.654664	2413.007088	-966.855636
124.99	0.000000	0.057051	10.541535	-129.295280	2438.886604	-956.236046
125.50	0.000000	0.056568	10.543290	-131.078425	2520.405411	-917.630150
126.01	0.000000	0.055432	10.544756	-135.268057	2650.660378	-885.377611
126.52	0.000000	0.053256	10.546552	-143.297472	2876.919634	-845.862208
127.03	0.000000	0.049753	10.542917	-156.224063	3090.646380	-925.836624
127.54	0.000000	0.044957	10.544720	-173.919988	3539.605073	-886.149826
128.05	0.000000	0.039191	10.565307	-195.194545	4504.128273	-433.245059
128.56	0.000000	0.032995	10.550633	-218.054985	4691.950291	-756.063234
129.08	0.000000	0.026876	10.537390	-240.635331	4906.308540	-1047.417890
129.59	0.000084	0.021234	10.570961	-261.453421	6159.787433	-308.853457
130.10	0.000065	0.016295	10.591816	-279.676022	7060.246819	149.957087
130.61	0.000061	0.012133	10.591588	-295.032053	7408.463697	144.926479
131.12	-0.000110	0.008742	10.591747	-307.543770	7700.146634	148.424917
131.63	-0.000161	0.006056	10.592218	-317.454707	7939.172481	158.802896
132.14	-0.000364	0.003982	10.593394	-325.105879	8142.406110	184.659720
132.65	-0.000427	0.002425	10.590120	-330.850610	8199.151213	112.643093
133.16	-0.000622	0.001269	10.590148	-335.115915	8297.986416	113.262501
133.67	-0.000601	0.000432	10.590112	-338.206925	8368.311636	112.471927
134.18	-0.000726	-0.000185	10.590111	-340.627521	8424.003006	112.443387
134.69	-0.000675	-0.000631	10.590097	-344.288620	8507.962166	112.139948
135.20	-0.000647	-0.000963	10.590119	-351.620907	8677.245735	112.613892
135.71	-0.000668	-0.001198	10.590104	-371.832911	9142.185307	112.295420
136.22	-0.000544	-0.001366	10.593291	-376.660781	9326.824570	182.410653
136.73	-0.000498	-0.001457	10.592042	-380.767087	9392.537861	154.926283
137.24	-0.000458	-0.001500	10.593849	-385.814877	9550.407797	194.676978
137.75	-0.000468	-0.001494	10.594844	-389.738483	9663.680545	216.571652
138.26	-0.000307	-0.001466	10.594881	-410.602172	10144.814523	217.391056
138.77	-0.000515	-0.001414	10.594890	-413.276098	10206.560039	217.574825
139.28	-0.000293	-0.001340	10.594895	-641.583946	15462.252245	217.692771
139.79	-0.000470	-0.001250	10.594900	-653.007680	15725.333327	217.798306
140.30	-0.000351	-0.001168	10.592167	492.651735	-10710.386236	157.672014
140.81	-0.000441	-0.001092	10.592148	-257.001983	6545.941975	157.248533
141.32	-0.000342	-0.001046	10.594888	-274.108006	7002.926059	217.544189
141.83	-0.000368	-0.001022	10.594913	-275.633613	7038.621090	218.093732
142.34	-0.000330	-0.001019	10.594919	-275.831254	7043.291000	218.208451
142.85	-0.000243	-0.001037	10.592042	-274.723757	6951.453253	154.923020
143.36	-0.000314	-0.001074	10.592445	-272.364553	6906.444111	163.793317
143.87	-0.000155	-0.001124	10.590085	-269.245913	6780.230248	111.878136
144.38	-0.000282	-0.001184	10.590085	-265.472758	6693.353467	111.859019
144.89	-0.000117	-0.001220	10.590099	-263.197070	6641.294018	112.170081
145.40	-0.000271	-0.001247	10.590103	-261.542223	6603.292371	112.258209
