Length [m]	OTDR [V]	Brillouin intensity [V]	Fitted Frequency [GHz]	Temperature [”]	Compensated Strain [レュ]	Uncompensated Strain [レュ]
0.51	0.006919	0.036365	10.504652	-152.627054	2111.530638	-1767.659792
1.02	0.006933	0.039671	10.476206	-129.959913	933.691849	-2393.468231
1.53	0.007026	0.042495	10.455219	-93.414083	-391.601139	-2855.177820
2.04	0.007023	0.044820	10.442750	-54.089503	-1584.416285	-3129.498759
2.55	0.006992	0.046738	10.436990	-28.050744	-2316.657367	-3256.213371
3.06	0.006885	0.048297	10.433669	-16.741411	-2653.583174	-3329.271852
3.57	0.006848	0.049599	10.431582	-21.761825	-2586.162388	-3375.199929
4.08	0.006825	0.050686	10.431104	-25.814447	-2503.894916	-3385.714353
4.59	0.006861	0.051631	10.430986	-16.167754	-2728.686163	-3388.316284
5.10	0.006921	0.052402	10.431370	5.434550	-3217.093735	-3379.855089
5.61	0.006966	0.053024	10.431816	24.651083	-3649.163562	-3370.041132
6.12	0.006961	0.053454	10.430767	33.375312	-3874.184988	-3393.118634
6.63	0.006911	0.053770	10.430299	26.750089	-3732.484302	-3403.430040
7.14	0.006851	0.053972	10.430623	12.161029	-3389.165282	-3396.291145
7.65	0.006835	0.054160	10.430480	0.396063	-3121.645975	-3399.444938
8.16	0.006853	0.054322	10.430324	4.096244	-3210.422957	-3402.879070
8.67	0.006920	0.054483	10.430596	20.478072	-3581.237193	-3396.879168
9.18	0.007003	0.054579	10.430860	41.039189	-4048.479034	-3391.090837
9.69	0.007024	0.054600	10.430916	53.864506	-4342.421539	-3389.858478
10.20	0.006985	0.054526	10.430676	55.521522	-4386.091672	-3395.129933
10.71	0.006904	0.054403	10.430469	47.720181	-4211.270225	-3399.673143
11.22	0.006823	0.054282	10.429785	41.989847	-4095.141438	-3414.727239
11.73	0.006798	0.054217	10.429211	44.627492	-4169.102262	-3427.359953
12.24	0.006833	0.054202	10.429401	53.832515	-4376.610591	-3423.174068
12.75	0.006901	0.054237	10.429431	58.852629	-4491.486434	-3422.520192
13.26	0.006955	0.054231	10.429645	56.915308	-4441.946931	-3417.805016
13.77	0.006943	0.054190	10.429319	48.744553	-4261.389290	-3424.988231
14.28	0.006874	0.054088	10.430508	40.010435	-4032.895616	-3398.815691
14.79	0.006810	0.054023	10.430796	33.830614	-3884.013450	-3392.496268
15.30	0.006769	0.054001	10.430732	30.767035	-3814.949149	-3393.887281
15.81	0.006784	0.054085	10.429755	29.031769	-3797.551640	-3415.395660
16.32	0.006813	0.054193	10.429897	26.281469	-3730.958498	-3412.264795
16.83	0.006832	0.054300	10.430051	22.074307	-3630.555362	-3408.872969
17.34	0.006762	0.054309	10.430408	21.646104	-3612.465124	-3401.019346
17.85	0.006623	0.054254	10.430651	25.242741	-3689.659154	-3395.678103
18.36	0.006461	0.054140	10.430198	31.584251	-3846.085660	-3405.643659
18.87	0.006321	0.054051	10.430589	37.353439	-3969.881483	-3397.050017
19.38	0.006239	0.053992	10.429517	37.060841	-3987.868827	-3420.633266
19.89	0.006218	0.053993	10.430562	37.499991	-3973.858415	-3397.625555
20.40	0.006220	0.053992	10.430963	31.987956	-3837.738994	-3388.816956
20.91	0.006214	0.053983	10.430086	37.456515	-3983.835396	-3408.097336
21.42	0.006165	0.053934	10.431075	44.622288	-4125.996004	-3386.354939
21.93	0.006094	0.053870	10.432204	50.326642	-4231.268184	-3361.515160
22.44	0.006039	0.053799	10.433239	57.034256	-4361.792509	-3338.733371
22.95	0.006006	0.053767	10.433568	45.460644	-4087.793697	-3331.504462
23.46	0.006015	0.053757	10.433911	41.140646	-3980.435004	-3323.955443
23.97	0.006070	0.053800	10.434805	32.727705	-3766.149184	-3304.283241
24.48	0.006104	0.053835	10.434441	30.505443	-3723.387409	-3312.290269
24.99	0.006132	0.053869	10.433942	32.288643	-3775.950149	-3323.273601
25.50	0.006110	0.053855	10.433737	38.913861	-3933.181186	-3327.776791
26.02	0.006071	0.053846	10.433679	38.138439	-3916.679161	-3329.062579
26.53	0.006039	0.053817	10.433970	36.518432	-3872.671655	-3322.656640
27.04	0.006032	0.053833	10.433628	35.180532	-3849.757552	-3330.177128
27.55	0.006050	0.053861	10.433879	27.622323	-3669.992294	-3324.665588
28.06	0.006105	0.053925	10.434206	31.542272	-3752.675497	-3317.461042
28.57	0.006125	0.053949	10.434119	31.954505	-3764.190113	-3319.392834
29.08	0.006124	0.053943	10.433558	37.762570	-3910.812667	-3331.720056
29.59	0.006098	0.053887	10.432884	43.386685	-4055.817475	-3346.543354
30.10	0.006049	0.053824	10.432603	46.037480	-4123.337809	-3352.743682
30.61	0.006021	0.053758	10.433508	40.344356	-3971.406431	-3332.828420
31.12	0.006030	0.053742	10.434174	46.730195	-4103.032882	-3318.163686
31.63	0.006052	0.053714	10.434365	33.766683	-3800.225717	-3313.974563
32.14	0.006099	0.053729	10.434786	40.910292	-3954.944381	-3304.698050
32.65	0.006108	0.053674	10.434864	35.106470	-3819.543491	-3302.982063
33.16	0.006091	0.053672	10.434726	43.039480	-4005.358148	-3306.034062
33.67	0.006060	0.053594	10.435567	37.861746	-3866.754733	-3287.515205
34.18	0.006035	0.053610	10.436558	45.839137	-4027.548550	-3265.725152
34.69	0.006026	0.053559	10.436571	37.260971	-3829.772323	-3265.429643
35.20	0.006063	0.053633	10.436359	37.033728	-3829.432074	-3270.095011
35.71	0.006093	0.053611	10.437123	31.895582	-3693.539016	-3253.292267
36.22	0.006128	0.053675	10.437287	32.490427	-3703.457272	-3249.691386
36.73	0.006118	0.053628	10.436909	33.827295	-3742.953363	-3258.011211
37.24	0.006097	0.053637	10.437649	39.710781	-3861.322568	-3241.731260
37.75	0.006070	0.053574	10.438929	41.304984	-3868.488623	-3213.560575
38.26	0.006050	0.053593	10.439234	42.747107	-3894.650820	-3206.849873
38.77	0.006054	0.053580	10.438828	40.609711	-3854.816018	-3215.785425
39.28	0.006080	0.053640	10.438080	37.773895	-3806.791183	-3232.244743
39.79	0.006097	0.053646	10.437875	35.325909	-3755.165309	-3236.752834
40.30	0.006107	0.053665	10.437390	35.775809	-3776.703129	-3247.418714
40.81	0.006090	0.053618	10.437764	38.143117	-3822.570105	-3239.188748
41.32	0.006070	0.053573	10.438778	41.147162	-3868.337157	-3216.881639
41.83	0.006043	0.053489	10.438575	41.444731	-3879.867616	-3221.346417
42.34	0.006041	0.053444	10.439102	40.080704	-3836.309531	-3209.748231
42.85	0.006049	0.053399	10.439785	36.111073	-3729.193776	-3194.737370
43.36	0.006075	0.053386	10.439768	31.573847	-3625.126549	-3195.098112
43.87	0.006084	0.053362	10.439720	30.253542	-3595.838493	-3196.152084
44.38	0.006094	0.053363	10.439773	32.331717	-3642.453040	-3194.984190
44.89	0.006078	0.053341	10.439740	36.548256	-3740.293923	-3195.725953
45.40	0.006065	0.053349	10.439994	41.117822	-3839.612547	-3190.125350
45.91	0.006049	0.053365	10.440703	42.620975	-3857.879791	-3174.543484
46.42	0.006050	0.053412	10.440966	40.974153	-3813.905982	-3168.758507
46.93	0.006061	0.053457	10.441310	37.578496	-3727.802563	-3161.187790
47.44	0.006078	0.053520	10.441433	35.074647	-3667.315293	-3158.469610
47.95	0.006080	0.053524	10.441710	35.752672	-3676.544852	-3152.385272
48.46	0.006070	0.053519	10.441702	39.461278	-3762.084551	-3152.546335
48.97	0.006050	0.053453	10.442476	42.583355	-3816.120169	-3135.534859
49.48	0.006032	0.053381	10.447497	44.348054	-3740.942479	-3025.072215
49.99	0.006025	0.053274	10.468259	42.729099	-3224.834526	-2568.304150
50.50	0.006036	0.053158	10.503053	40.295951	-2366.365908	-1802.835010
51.01	0.006044	0.052935	10.533263	37.664186	-1609.036103	-1138.204049
51.53	0.006063	0.052593	10.556440	39.106668	-1107.709143	-628.310880
52.04	0.006065	0.052073	10.561103	43.209455	-1094.610676	-525.724860
52.55	0.006061	0.051426	10.563405	47.924037	-1150.066333	-475.098800
53.06	0.006046	0.050654	10.564857	50.625235	-1178.748462	-443.144392
53.57	0.006042	0.049861	10.566055	49.537863	-1126.085036	-416.785609
54.08	0.006041	0.049061	10.567245	44.587908	-984.706750	-390.618076
54.59	0.006047	0.048322	10.568171	38.642551	-826.479261	-370.235608
55.10	0.006058	0.047640	10.568590	33.670952	-702.373745	-361.019919
55.61	0.006069	0.047074	10.568783	32.147265	-662.843039	-356.769366
56.12	0.006067	0.046585	10.568145	32.608484	-688.189956	-370.820212
56.63	0.006054	0.046211	10.567998	32.984663	-700.221871	-374.037159
57.14	0.006035	0.045908	10.568044	32.551806	-689.203887	-373.031977
57.65	0.006024	0.045703	10.568093	30.327924	-636.871292	-371.944906
58.16	0.006020	0.045555	10.568281	25.753576	-527.252421	-367.825046
58.67	0.006033	0.045470	10.568659	23.034787	-455.951380	-359.511338
59.18	0.006038	0.045402	10.568259	20.845832	-414.784867	-368.308702
59.69	0.006055	0.045359	10.568958	21.789074	-420.368146	-352.922387
60.20	0.006057	0.045298	10.569776	23.670886	-444.818259	-334.923564
60.71	0.006046	0.045259	10.569283	25.286960	-493.401280	-345.780493
61.22	0.006034	0.045206	10.569004	25.230700	-498.542643	-351.920259
61.73	0.006027	0.045191	10.568765	24.068165	-477.290451	-357.175286
62.24	0.006032	0.045172	10.568978	20.637073	-393.400190	-352.493795
62.75	0.006040	0.045181	10.568872	19.488578	-369.399131	-354.818386
63.26	0.006047	0.045174	10.568769	19.484756	-371.691274	-357.088792
63.77	0.006052	0.045176	10.569273	21.084061	-396.876508	-345.994662
64.28	0.006070	0.045157	10.569329	23.828147	-458.751333	-344.761165
64.79	0.006179	0.045155	10.569240	25.524914	-499.852983	-346.709660
65.30	0.006479	0.045140	10.569636	24.843291	-475.032421	-338.000686
65.81	0.007141	0.045158	10.569560	23.684335	-450.122877	-339.688356
66.32	0.008288	0.045166	10.569065	20.943758	-398.450849	-350.577298
66.83	0.009841	0.045207	10.569509	20.726118	-383.195221	-340.803925
67.34	0.011441	0.045229	10.569866	21.877861	-401.478221	-332.953544
67.85	0.012631	0.045249	10.570328	23.902749	-437.424206	-322.778964
68.36	0.013114	0.045232	10.570851	25.314695	-457.867122	-311.275260
68.87	0.012855	0.045209	10.570087	25.663554	-483.517734	-328.083055
69.38	0.012058	0.045145	10.569467	22.870620	-433.524127	-341.722727
69.89	0.011009	0.045111	10.569371	20.828806	-388.749750	-343.847536
70.40	0.009934	0.045072	10.570001	18.487224	-320.314757	-329.984853
70.91	0.009002	0.045056	10.570309	18.903968	-322.799372	-323.203823
71.42	0.008257	0.045041	10.570164	20.060109	-352.759582	-326.395815
71.93	0.007692	0.045033	10.569564	21.566089	-401.254489	-339.586206
72.44	0.007277	0.045007	10.569999	22.569644	-414.329042	-330.021439
72.95	0.006968	0.044988	10.570676	22.149004	-389.039595	-315.134358
73.46	0.006741	0.044938	10.570296	20.234036	-353.716374	-323.489329
73.97	0.006586	0.044910	10.570553	18.985103	-319.027941	-317.824629
74.48	0.006468	0.044861	10.570987	18.040264	-287.268878	-308.276811
74.99	0.006398	0.044847	10.570467	18.888140	-318.783473	-319.720597
75.50	0.006337	0.044826	10.570234	19.918163	-347.876890	-324.855139
76.01	0.006293	0.044817	10.570276	21.473534	-382.700973	-323.920276
76.52	0.006254	0.044785	10.570249	21.313672	-379.651944	-324.522133
77.03	0.006232	0.044767	10.570581	20.688376	-357.592652	-317.210278
77.55	0.006202	0.044725	10.571037	18.785794	-303.293648	-307.192157
78.06	0.006196	0.044698	10.571220	18.035950	-281.805443	-303.159939
78.57	0.006187	0.044654	10.570397	17.109650	-279.452586	-321.255769
79.08	0.006182	0.044651	10.570081	18.068432	-308.819442	-328.215477
79.59	0.006177	0.044639	10.570405	18.685793	-315.557643	-321.086723
80.10	0.006170	0.044655	10.570302	19.792789	-343.427242	-323.363625
80.61	0.006158	0.044649	10.570491	19.654321	-335.874390	-319.199484
81.12	0.006160	0.044662	10.571024	19.142398	-311.796971	-307.472996
81.63	0.006159	0.044653	10.571046	18.025566	-285.577719	-306.986356
82.14	0.006174	0.044682	10.571245	18.139507	-283.607294	-302.604781
82.65	0.006185	0.044714	10.571521	19.018156	-297.478484	-296.542704
83.16	0.006201	0.044773	10.571840	20.680480	-328.379654	-289.517224
83.67	0.006208	0.044826	10.572210	22.161906	-353.942901	-281.372152
84.18	0.006212	0.044895	10.571340	23.184361	-397.547398	-300.515045
84.69	0.006203	0.044954	10.570909	22.985887	-402.928267	-310.006079
85.20	0.006205	0.045020	10.571815	23.050953	-383.516274	-290.060141
85.71	0.006213	0.045069	10.572393	22.284492	-352.560069	-277.361238
86.22	0.006218	0.045110	10.572862	22.522205	-347.209793	-267.037745
86.73	0.006199	0.045090	10.572368	22.590374	-360.173079	-277.906604
87.24	0.006163	0.045038	10.570858	23.037943	-405.296135	-311.121735
87.75	0.006097	0.044940	10.570852	22.514677	-393.397980	-311.262190
88.26	0.006003	0.044811	10.571395	21.501417	-357.539664	-299.306504
88.77	0.005932	0.044710	10.571507	20.357191	-328.623961	-296.849226
89.28	0.005954	0.044709	10.572280	19.695290	-295.548212	-279.832510
89.79	0.006035	0.044824	10.572022	19.932193	-306.954533	-285.511003
90.30	0.006043	0.044965	10.571453	21.210914	-349.506937	-298.023075
90.81	0.006066	0.045013	10.571589	22.376747	-373.207784	-295.031403
91.32	0.006095	0.044945	10.571765	22.941399	-382.167482	-291.179172
91.83	0.006118	0.044871	10.571597	23.064342	-388.873482	-294.876402
92.34	0.006121	0.044821	10.570789	22.870689	-403.049832	-312.651633
92.85	0.006123	0.044784	10.570886	21.785933	-375.834572	-310.510539
93.36	0.006132	0.044786	10.570987	21.494552	-366.801262	-308.291947
93.87	0.006143	0.044804	10.571540	20.606410	-333.600554	-296.123951
94.38	0.006147	0.044839	10.571700	20.800580	-334.384438	-292.607996
94.89	0.006149	0.044826	10.570858	21.353428	-366.527963	-311.130115
95.40	0.006154	0.044798	10.570675	21.844091	-382.026489	-315.139978
95.91	0.006157	0.044749	10.570708	21.837442	-381.111964	-314.413606
96.42	0.006157	0.044745	10.570844	21.499787	-370.204809	-311.423650
96.93	0.006157	0.044762	10.570989	21.215791	-360.334952	-308.244883
97.44	0.006157	0.044794	10.571413	21.035894	-346.417597	-298.919320
97.95	0.006157	0.044767	10.571032	20.530899	-343.566620	-307.288739
98.46	0.006157	0.044726	10.569260	19.105368	-351.617487	-346.271124
98.97	0.006157	0.044650	10.565952	12.164100	-268.128335	-419.050703
99.48	0.006157	0.044636	10.561045	-4.274037	-2.907388	-527.013064
99.99	0.006157	0.044668	10.554290	-35.200945	553.238234	-675.613556
100.50	0.006157	0.044779	10.546723	-76.792482	1336.138243	-842.091879
101.01	0.006154	0.044898	10.537841	-117.794534	2075.135304	-1037.505203
101.52	0.006154	0.045033	10.529505	-148.345344	2586.148734	-1220.898958
102.03	0.006154	0.045125	10.523909	-166.086548	2865.486703	-1344.008499
102.54	0.006154	0.045232	10.520764	-172.108486	2931.591168	-1413.184247
103.06	0.006154	0.045343	10.518438	-168.302033	2790.314819	-1464.364211
103.57	0.006154	0.045519	10.517794	-156.210288	2497.106069	-1478.540111
104.08	0.006154	0.045704	10.518818	-137.851668	2098.132346	-1455.994164
104.59	0.006154	0.045893	10.521207	-114.984645	1626.832719	-1403.442166
105.10	0.006154	0.046027	10.525033	-90.935836	1161.475673	-1319.271203
105.61	0.006154	0.046113	10.527860	-67.913844	696.710014	-1257.083543
106.12	0.006154	0.046128	10.531182	-47.796790	310.235230	-1184.002088
106.63	0.006154	0.046121	10.534281	-31.159574	-1.273640	-1115.822531
107.14	0.006154	0.046100	10.535535	-17.577990	-284.996888	-1088.235432
107.65	0.006157	0.046085	10.537117	-6.848710	-495.498105	-1053.433977
108.16	0.006154	0.046024	10.538667	0.551240	-630.089565	-1019.329142
108.67	0.006154	0.045944	10.539070	6.181721	-750.399743	-1010.456338
109.18	0.006154	0.045812	10.538779	8.958825	-821.052507	-1016.871136
109.69	0.006154	0.045690	10.538197	11.357354	-889.679661	-1029.666661
110.20	0.006154	0.045584	10.538344	13.038742	-925.001888	-1026.439847
110.71	0.006154	0.045536	10.539154	14.864890	-948.356973	-1008.618775
111.22	0.006154	0.045519	10.539577	15.992349	-964.540628	-999.299057
111.73	0.006154	0.045549	10.539347	17.949721	-1014.918480	-1004.373667
112.24	0.006149	0.045561	10.538768	18.352562	-1037.529430	-1017.096554
112.75	0.006149	0.045578	10.538903	19.010511	-1049.577599	-1014.141736
113.26	0.006149	0.045558	10.539603	19.174333	-1037.202647	-998.739927
113.77	0.006149	0.045553	10.539833	19.401082	-1037.121429	-993.683356
114.28	0.006149	0.045543	10.539453	19.731371	-1053.473001	-1002.028536
114.79	0.006149	0.045569	10.539034	20.643166	-1084.129549	-1011.250265
115.30	0.006149	0.045583	10.539260	20.656798	-1079.237750	-1006.284595
115.81	0.006149	0.045594	10.539733	20.816822	-1072.018767	-995.884486
116.32	0.006146	0.045576	10.539166	19.797420	-1061.624244	-1008.353712
116.83	0.006146	0.045560	10.538468	19.006729	-1059.513661	-1023.702847
117.34	0.006146	0.045525	10.539029	17.823498	-1019.348771	-1011.371414
117.85	0.006146	0.045520	10.539540	17.339193	-996.395131	-1000.110460
118.36	0.006146	0.045486	10.539443	16.840394	-987.164238	-1002.257993
118.87	0.006146	0.045480	10.539334	17.356276	-1001.548055	-1004.650754
119.38	0.006146	0.045441	10.539683	16.918958	-983.432477	-996.973091
119.89	0.006146	0.045435	10.539660	16.379226	-971.538367	-997.478966
120.40	0.006146	0.045421	10.539559	16.029243	-965.805798	-999.695777
120.91	0.006146	0.045433	10.539344	17.189484	-997.483550	-1004.436107
121.42	0.006146	0.045421	10.538443	19.187947	-1064.261545	-1024.252586
121.93	0.006146	0.045415	10.538241	23.038949	-1157.569105	-1028.696662
122.44	0.006146	0.045370	10.539101	28.336324	-1259.689516	-1009.787056
122.95	0.006146	0.045342	10.539239	32.548222	-1353.453348	-1006.741612
123.46	0.006146	0.045317	10.538753	30.957183	-1328.025823	-1017.423100
123.97	0.006143	0.045332	10.539230	26.124091	-1205.769879	-1006.930314
124.48	0.006141	0.045362	10.539480	25.824587	-1193.121153	-1001.441317
124.99	0.006135	0.045426	10.539718	24.966895	-1167.890856	-996.207691
125.50	0.006133	0.045460	10.541749	23.540799	-1088.221390	-951.525616
126.01	0.006133	0.045492	10.547166	22.405003	-937.134085	-832.343127
126.52	0.006132	0.045502	10.556872	22.315012	-711.210972	-618.809995
127.03	0.006131	0.045516	10.562637	22.269132	-577.194588	-491.978528
127.54	0.006130	0.045509	10.564377	21.700815	-523.986513	-453.702504
128.05	0.006130	0.045510	10.569916	21.047280	-381.199729	-331.848152
128.56	0.006128	0.045458	10.577938	20.398784	-181.250290	-155.355418
129.08	0.006127	0.045388	10.580144	19.724278	-114.860486	-106.837041
129.59	0.006131	0.045257	10.577782	18.443071	-139.843125	-158.801573
130.10	0.006123	0.045130	10.579390	17.259270	-75.508135	-123.426665
130.61	0.006111	0.044983	10.583571	16.087545	47.889403	-31.446536
131.12	0.006116	0.044880	10.582955	15.277360	52.332633	-44.998619
131.63	0.006124	0.044797	10.579437	14.615253	-13.557891	-122.390856
132.14	0.006136	0.044778	10.579563	14.469395	-7.282220	-119.607283
132.65	0.006139	0.044775	10.584085	14.442952	97.604253	-20.136197
133.16	0.006138	0.044808	10.584065	14.704861	91.123498	-20.567083
133.67	0.006132	0.044826	10.581478	14.845569	28.209107	-77.491679
134.18	0.006130	0.044869	10.582614	15.190936	46.466397	-52.492205
134.69	0.006125	0.044894	10.584319	15.387724	81.252751	-14.988140
135.20	0.006136	0.044924	10.583310	15.795559	48.602342	-37.178054
135.71	0.006140	0.044924	10.581596	15.806254	8.833908	-74.878528
136.22	0.006154	0.044934	10.583929	15.879243	60.956728	-23.555566
136.73	0.006150	0.044904	10.585368	15.646957	99.479473	8.090817
137.24	0.006151	0.044880	10.582365	15.450136	34.764500	-57.963038
137.75	0.006139	0.044830	10.580815	15.054197	8.125004	-92.068852
138.26	0.006150	0.044793	10.583361	14.761862	73.569415	-36.060351
138.77	0.006295	0.044729	10.584521	14.254926	111.987962	-10.544283
139.28	0.007624	0.044698	10.581155	14.008018	40.057525	-84.580839
139.79	0.014113	0.044647	10.580413	13.602636	32.272599	-100.908530
140.30	0.035248	0.044628	10.584386	13.456355	127.264372	-13.507513
140.81	0.086389	0.044604	10.584884	13.258421	143.303861	-2.553725
141.32	0.185763	0.044617	10.581671	13.324075	67.701450	-73.229582
141.83	0.339491	0.044630	10.582734	13.296225	92.838544	-49.862728
142.34	0.523754	0.044671	10.586569	13.752991	170.779906	34.515861
142.85	0.688914	0.044696	10.585917	13.985223	150.393323	20.168481
143.36	0.787322	0.044742	10.582393	14.348921	60.755277	-57.351404
143.87	0.799017	0.044750	10.581520	14.417495	39.047179	-76.553097
144.38	0.735375	0.044768	10.585039	14.557978	116.962695	0.855721
144.89	0.624724	0.044759	10.584162	14.483951	98.431889	-18.446438
145.40	0.497812	0.044769	10.581876	14.564074	43.878082	-68.726194
145.91	0.378297	0.044766	10.584481	14.546231	104.364869	-11.419358
146.42	0.278884	0.044798	10.587879	15.043011	171.308391	63.346988
146.93	0.201985	0.044816	10.586094	15.191999	126.703555	24.069778
