Length [m]	OTDR [V]	Brillouin intensity [V]	Fitted Frequency [GHz]	Temperature [”]	Compensated Strain [レュ]	Uncompensated Strain [レュ]
0.51	0.007252	0.043130	10.507259	-150.755041	2176.897640	-1710.312150
1.02	0.007358	0.047002	10.480881	-127.341357	1029.581350	-2290.611993
1.53	0.007305	0.050254	10.459081	-92.293426	-279.988086	-2770.214536
2.04	0.007352	0.052979	10.446734	-54.838543	-1426.950919	-3041.852603
2.55	0.007304	0.055218	10.440072	-29.489658	-2164.128455	-3188.424772
3.06	0.007255	0.057101	10.436894	-16.996111	-2525.001536	-3258.323026
3.57	0.007223	0.058669	10.434712	-22.539647	-2447.718002	-3306.329986
4.08	0.007219	0.060005	10.433775	-25.096032	-2410.479088	-3326.942149
4.59	0.007194	0.061115	10.434224	-14.999419	-2632.552501	-3317.071932
5.10	0.007230	0.062027	10.434156	7.153188	-3144.071841	-3318.573277
5.61	0.007239	0.062718	10.434839	25.892950	-3559.703516	-3303.548099
6.12	0.007251	0.063213	10.434803	34.525510	-3759.238294	-3304.326691
6.63	0.007217	0.063531	10.433771	25.451531	-3574.161377	-3327.032453
7.14	0.007208	0.063762	10.433810	11.191238	-3245.002117	-3326.181392
7.65	0.007179	0.063913	10.434794	0.062332	-2966.112576	-3304.522092
8.16	0.007188	0.064048	10.434368	6.005434	-3112.759372	-3313.907196
8.67	0.007211	0.064138	10.434082	21.201914	-3469.172006	-3320.198076
9.18	0.007271	0.064198	10.434240	41.869813	-3941.297756	-3316.723737
9.69	0.007267	0.064147	10.433474	53.040006	-4216.098993	-3333.576583
10.20	0.007268	0.064030	10.433593	54.076335	-4237.202081	-3330.950628
10.71	0.007217	0.063865	10.433952	43.963667	-3996.144916	-3323.064686
11.22	0.007184	0.063731	10.434259	37.718760	-3845.310020	-3316.311736
11.73	0.007149	0.063638	10.434147	38.488555	-3865.604557	-3318.767201
12.24	0.007166	0.063632	10.432453	49.011993	-4146.916847	-3356.032801
12.75	0.007192	0.063665	10.431699	56.021221	-4325.656145	-3372.620505
13.26	0.007239	0.063718	10.432002	58.590265	-4377.798019	-3365.946374
13.77	0.007230	0.063735	10.432787	48.976967	-4138.399170	-3348.676849
14.28	0.007218	0.063737	10.433773	39.100709	-3888.329091	-3327.002217
14.79	0.007170	0.063733	10.434256	29.584261	-3658.111097	-3316.363697
15.30	0.007149	0.063776	10.433826	27.099982	-3610.838927	-3325.821730
15.81	0.007119	0.063835	10.432795	26.161468	-3613.010242	-3348.501398
16.32	0.007131	0.063925	10.433519	28.666678	-3653.987557	-3332.579026
16.83	0.007084	0.063970	10.434428	26.112868	-3574.231361	-3312.577194
17.34	0.007026	0.063949	10.434412	25.620370	-3563.272665	-3312.938206
17.85	0.006886	0.063867	10.434779	25.040507	-3541.468611	-3304.872161
18.36	0.006764	0.063793	10.434621	28.278925	-3619.641955	-3308.331093
18.87	0.006626	0.063732	10.434173	30.392661	-3678.645499	-3318.200248
19.38	0.006555	0.063731	10.434648	34.685305	-3766.508327	-3307.752741
19.89	0.006498	0.063751	10.435002	37.776709	-3829.489314	-3299.947813
20.40	0.006499	0.063777	10.434981	39.029726	-3858.818463	-3300.410583
20.91	0.006464	0.063745	10.435743	40.686968	-3879.396478	-3283.649381
21.42	0.006431	0.063674	10.436845	47.332335	-4006.952027	-3259.402533
21.93	0.006373	0.063541	10.436928	44.849857	-3947.896949	-3257.581243
22.44	0.006342	0.063427	10.436904	48.869448	-4040.986055	-3258.114959
22.95	0.006298	0.063336	10.437719	43.473225	-3897.976236	-3240.190496
23.46	0.006317	0.063317	10.437683	38.214240	-3777.743881	-3240.980021
23.97	0.006337	0.063339	10.438074	37.347980	-3748.776825	-3232.370030
24.48	0.006371	0.063415	10.438765	33.666333	-3648.095276	-3217.173080
24.99	0.006373	0.063471	10.438616	32.954414	-3635.137344	-3220.445182
25.50	0.006381	0.063538	10.437679	36.703420	-3743.039907	-3241.051181
26.02	0.006342	0.063585	10.437533	35.448412	-3717.519654	-3244.265447
26.53	0.006350	0.063646	10.437240	35.610084	-3727.996429	-3250.709206
27.04	0.006328	0.063697	10.436674	34.867160	-3723.964011	-3263.176222
27.55	0.006359	0.063759	10.436637	32.949094	-3680.650104	-3263.976843
28.06	0.006371	0.063786	10.437295	30.403288	-3606.875682	-3249.505297
28.57	0.006392	0.063783	10.437773	34.790363	-3696.850316	-3238.998685
29.08	0.006369	0.063711	10.437076	34.774818	-3712.557448	-3254.323142
29.59	0.006362	0.063611	10.437287	40.864892	-3847.883837	-3249.682353
30.10	0.006316	0.063474	10.437730	38.544496	-3784.262809	-3239.946516
30.61	0.006315	0.063372	10.437815	36.669980	-3739.150251	-3238.075107
31.12	0.006310	0.063294	10.437075	37.420878	-3773.502770	-3254.355502
31.63	0.006337	0.063269	10.437492	35.684657	-3723.914741	-3245.178152
32.14	0.006347	0.063260	10.438120	33.436730	-3657.690091	-3231.367388
32.65	0.006369	0.063268	10.438015	38.766695	-3782.802297	-3233.674146
33.16	0.006343	0.063282	10.439293	34.499618	-3655.099553	-3205.556767
33.67	0.006352	0.063297	10.440731	38.374602	-3711.122203	-3173.907953
34.18	0.006321	0.063290	10.441062	36.156747	-3652.438099	-3166.629792
34.69	0.006336	0.063324	10.440351	37.281946	-3694.733956	-3182.268285
35.20	0.006345	0.063331	10.439710	31.956110	-3586.919353	-3196.371115
35.71	0.006367	0.063381	10.440449	34.916141	-3638.030435	-3180.128187
36.22	0.006374	0.063374	10.441039	32.487289	-3568.511907	-3167.148217
36.73	0.006393	0.063383	10.440704	34.965431	-3633.266778	-3174.501771
37.24	0.006362	0.063321	10.441435	37.124770	-3666.118940	-3158.423620
37.75	0.006355	0.063289	10.442736	38.600866	-3670.091010	-3129.799641
38.26	0.006333	0.063226	10.442755	38.450240	-3666.191981	-3129.387871
38.77	0.006350	0.063226	10.442554	39.736686	-3700.447405	-3133.815786
39.28	0.006348	0.063230	10.441745	37.908866	-3677.014601	-3151.599433
39.79	0.006371	0.063273	10.440933	37.697219	-3690.888216	-3169.481013
40.30	0.006363	0.063289	10.441294	37.140638	-3669.745362	-3161.534460
40.81	0.006373	0.063319	10.441784	39.113888	-3703.862735	-3150.749446
41.32	0.006338	0.063317	10.442382	39.550484	-3700.115653	-3137.588053
41.83	0.006336	0.063320	10.443339	41.116097	-3714.100773	-3116.549923
42.34	0.006320	0.063303	10.444541	40.511273	-3672.452893	-3090.102854
42.85	0.006346	0.063293	10.445109	39.254288	-3630.412743	-3077.602137
43.36	0.006345	0.063267	10.444560	35.989733	-3567.915308	-3089.670461
43.87	0.006361	0.063235	10.443455	36.003405	-3593.728744	-3113.993814
44.38	0.006353	0.063189	10.443021	35.661816	-3595.867826	-3123.535117
44.89	0.006355	0.063136	10.444452	37.978717	-3616.204546	-3092.058579
45.40	0.006330	0.063070	10.445335	39.328468	-3626.905590	-3072.627766
45.91	0.006342	0.063034	10.445618	40.987470	-3658.569806	-3066.403107
46.42	0.006331	0.063002	10.445990	39.876609	-3624.414012	-3058.214648
46.93	0.006355	0.063007	10.445085	38.559574	-3614.983055	-3078.138613
47.44	0.006347	0.063018	10.444303	36.145737	-3577.434779	-3095.325519
47.95	0.006363	0.063029	10.445123	36.668973	-3570.583426	-3077.300462
48.46	0.006340	0.063026	10.445752	37.308481	-3570.791305	-3063.456069
48.97	0.006342	0.063002	10.446901	39.687495	-3599.053739	-3038.176024
49.48	0.006315	0.062952	10.452676	40.493570	-3484.420842	-2911.126856
49.99	0.006318	0.062887	10.472046	41.682859	-3065.055598	-2484.977135
50.50	0.006309	0.062747	10.505736	40.180425	-2253.489102	-1743.811022
51.01	0.006331	0.062517	10.536259	41.290404	-1575.093902	-1072.312842
51.53	0.006323	0.062105	10.557705	41.930432	-1095.198249	-600.483839
52.04	0.006343	0.061514	10.562669	45.983888	-1074.039114	-491.291938
52.55	0.006330	0.060749	10.564926	48.016495	-1068.766266	-441.629020
53.06	0.006338	0.059879	10.566940	50.429723	-1077.865140	-397.317438
53.57	0.006322	0.058936	10.568453	48.449340	-997.383928	-364.032379
54.08	0.006337	0.058009	10.569141	45.673070	-917.615157	-348.903466
54.59	0.006323	0.057120	10.569529	39.771279	-772.803557	-340.361819
55.10	0.006339	0.056322	10.570036	36.502235	-685.852911	-329.202682
55.61	0.006330	0.055606	10.570469	33.614954	-609.416303	-319.689963
56.12	0.006337	0.055014	10.570324	33.031528	-599.320944	-322.871159
56.63	0.006324	0.054523	10.570845	31.519763	-552.516965	-311.420805
57.14	0.006325	0.054149	10.570596	31.553706	-559.029717	-316.888006
57.65	0.006314	0.053891	10.570719	28.654316	-489.455638	-314.187402
58.16	0.006322	0.053728	10.571142	26.404091	-427.892835	-304.874046
58.67	0.006309	0.053624	10.570900	23.749489	-372.356881	-310.189279
59.18	0.006332	0.053565	10.570658	23.256331	-366.588496	-315.515838
59.69	0.006314	0.053516	10.570239	22.446733	-357.620555	-324.738869
60.20	0.006329	0.053482	10.569758	24.426690	-414.286377	-335.315665
60.71	0.006312	0.053435	10.570061	23.666397	-389.813888	-328.666188
61.22	0.006321	0.053419	10.570650	24.823110	-402.858112	-315.709367
61.73	0.006308	0.053420	10.571180	23.035201	-349.463096	-304.035514
62.24	0.006320	0.053435	10.570969	22.477933	-341.510970	-308.686766
62.75	0.006308	0.053430	10.570816	21.236640	-316.448997	-312.037035
63.26	0.006324	0.053419	10.571070	22.486968	-339.388989	-306.464183
63.77	0.006310	0.053375	10.570965	22.603186	-344.480063	-308.768610
64.28	0.006345	0.053335	10.571320	24.923286	-389.710804	-300.968371
64.79	0.006429	0.053288	10.571917	24.643393	-369.489408	-287.825136
65.30	0.006730	0.053265	10.571591	24.808353	-380.804402	-294.996281
65.81	0.007327	0.053242	10.571289	23.085620	-348.111013	-301.638628
66.32	0.008402	0.053248	10.571508	22.565535	-331.099295	-296.831393
66.83	0.009828	0.053256	10.572064	21.406251	-291.573078	-284.583356
67.34	0.011341	0.053274	10.572230	22.967747	-323.700309	-280.941461
67.85	0.012457	0.053274	10.571636	22.469224	-325.933249	-294.018319
68.36	0.012938	0.053280	10.570798	24.298331	-387.346251	-312.435934
68.87	0.012712	0.053258	10.570941	23.261071	-360.175230	-309.294088
69.38	0.011994	0.053244	10.571362	22.665949	-336.775401	-300.040905
69.89	0.011015	0.053223	10.571405	21.272522	-303.703754	-299.091351
70.40	0.010034	0.053234	10.571330	20.973314	-298.550897	-300.746196
70.91	0.009159	0.053243	10.571261	19.959535	-276.796761	-302.255954
71.42	0.008493	0.053275	10.571707	21.873194	-310.563156	-292.444672
71.93	0.007977	0.053307	10.571732	22.486072	-324.089625	-291.889719
72.44	0.007630	0.053329	10.572006	23.905092	-350.435827	-285.861850
72.95	0.007357	0.053342	10.571909	23.035188	-332.650229	-287.997922
73.46	0.007179	0.053357	10.572547	23.272131	-323.395851	-273.967200
73.97	0.007028	0.053352	10.573051	21.900053	-280.183833	-262.875910
74.48	0.006940	0.053347	10.572325	22.353230	-307.351829	-278.840467
74.99	0.006841	0.053323	10.571726	21.610101	-304.071480	-292.029382
75.50	0.006797	0.053301	10.571683	23.446379	-347.328837	-292.970770
76.01	0.006735	0.053264	10.572045	23.299781	-335.612478	-285.013557
76.52	0.006715	0.053239	10.572067	24.042446	-352.192600	-284.521540
77.03	0.006678	0.053200	10.571988	22.326470	-314.519445	-286.265304
77.55	0.006669	0.053166	10.571777	22.134535	-314.965498	-290.905432
78.06	0.006647	0.053124	10.572082	20.934936	-280.323085	-284.201336
78.57	0.006647	0.053101	10.572283	21.225924	-282.376499	-279.770415
79.08	0.006629	0.053084	10.572588	21.005255	-270.264745	-273.062514
79.59	0.006628	0.053112	10.572701	22.588651	-304.100997	-270.569973
80.10	0.006615	0.053148	10.572842	22.189425	-291.673246	-267.481511
80.61	0.006627	0.053203	10.572484	23.153387	-322.106533	-275.344755
81.12	0.006617	0.053251	10.572239	22.127208	-304.134498	-280.734574
81.63	0.006640	0.053302	10.572126	22.922849	-325.057175	-283.221672
82.14	0.006643	0.053322	10.572122	22.152672	-307.424429	-283.313694
82.65	0.006665	0.053347	10.572809	23.659276	-326.271452	-268.209090
83.16	0.006657	0.053345	10.573075	23.522999	-316.994827	-262.352538
83.67	0.006674	0.053342	10.572530	25.063002	-365.005723	-274.334102
84.18	0.006657	0.053320	10.572694	24.721758	-353.363981	-270.722207
84.69	0.006663	0.053288	10.573333	24.992347	-344.869958	-256.677971
85.20	0.006650	0.053231	10.573506	23.372917	-303.608485	-252.878810
85.71	0.006664	0.053182	10.572938	23.509101	-319.836650	-265.368537
86.22	0.006661	0.053126	10.573483	21.962363	-271.648508	-253.365776
86.73	0.006649	0.053048	10.573477	22.153706	-276.201447	-253.507229
87.24	0.006603	0.052965	10.572988	21.143163	-264.215817	-264.264164
87.75	0.006551	0.052873	10.572803	21.468096	-275.973173	-268.344483
88.26	0.006457	0.052780	10.572942	19.962249	-238.091807	-265.275511
88.77	0.006400	0.052743	10.573427	20.525936	-239.886984	-254.610174
89.28	0.006425	0.052811	10.572766	20.060120	-244.402463	-269.146177
89.79	0.006457	0.053011	10.572787	21.944146	-287.300827	-268.696621
90.30	0.006482	0.053223	10.573608	22.943084	-291.358140	-250.631674
90.81	0.006510	0.053346	10.573786	24.571138	-324.732700	-246.718088
91.32	0.006526	0.053325	10.573608	24.365087	-324.076255	-250.616486
91.83	0.006557	0.053289	10.573296	24.748289	-340.108866	-257.495515
92.34	0.006558	0.053262	10.573110	24.110641	-329.714368	-261.581988
92.85	0.006559	0.053248	10.573472	24.749721	-336.078194	-253.619186
93.36	0.006559	0.053249	10.573962	23.439633	-294.622693	-242.842243
93.87	0.006563	0.053262	10.573673	24.561403	-327.114081	-249.203465
94.38	0.006575	0.053268	10.573327	23.761063	-316.659794	-256.805392
94.89	0.006585	0.053238	10.572833	24.523357	-345.594186	-267.667170
95.40	0.006591	0.053165	10.572668	23.495019	-325.739378	-271.308390
95.91	0.006594	0.053092	10.572734	23.721785	-329.430716	-269.850129
96.42	0.006594	0.053034	10.573014	22.641358	-298.100994	-263.689182
96.93	0.006594	0.053026	10.573565	23.288870	-300.297394	-251.565897
97.44	0.006594	0.053029	10.573431	22.394322	-282.789960	-254.508475
97.95	0.006594	0.053037	10.572175	23.256454	-331.615142	-282.151858
98.46	0.006594	0.053023	10.570056	21.145885	-331.891646	-328.760709
98.97	0.006594	0.053013	10.567149	16.407926	-289.879415	-392.723809
99.48	0.006594	0.053036	10.562775	0.682740	-28.777962	-488.960384
99.99	0.006594	0.053134	10.557057	-26.349323	461.626181	-614.746811
100.50	0.006594	0.053280	10.549497	-65.531100	1189.212159	-781.074573
101.01	0.006591	0.053433	10.540509	-104.443778	1877.679803	-978.808517
101.52	0.006591	0.053558	10.532436	-135.164454	2398.684295	-1156.401748
102.03	0.006591	0.053651	10.527981	-153.048225	2707.611966	-1254.416080
102.54	0.006591	0.053707	10.526448	-159.738453	2826.271012	-1288.134454
103.06	0.006591	0.053801	10.525910	-156.256930	2733.699894	-1299.989260
103.57	0.006591	0.053918	10.525666	-144.927518	2467.283244	-1305.347778
104.08	0.006591	0.054084	10.525304	-127.095870	2048.450940	-1313.316577
104.59	0.006591	0.054240	10.526253	-105.784034	1579.756351	-1292.429306
105.10	0.006591	0.054374	10.528523	-82.936460	1106.155227	-1242.499810
105.61	0.006591	0.054450	10.531634	-62.534237	708.267304	-1174.043500
106.12	0.006591	0.054489	10.534921	-44.465937	368.132190	-1101.746111
106.63	0.006591	0.054527	10.536806	-30.902093	99.385112	-1060.262715
107.14	0.006591	0.054603	10.538330	-19.043348	-138.462493	-1026.745682
107.65	0.006591	0.054695	10.539446	-10.585098	-307.430951	-1002.194480
108.16	0.006591	0.054809	10.540675	-2.837725	-457.427605	-975.155845
108.67	0.006579	0.054882	10.541241	1.867981	-552.683907	-962.690749
109.18	0.006579	0.054923	10.540808	7.026428	-681.419999	-972.220643
109.69	0.006579	0.054906	10.541044	9.166429	-725.232987	-967.022715
110.20	0.006579	0.054885	10.541247	12.242266	-791.359327	-962.559988
110.71	0.006579	0.054870	10.541257	13.201409	-813.224512	-962.355881
111.22	0.006579	0.054914	10.541316	15.400900	-862.493188	-961.055852
111.73	0.006579	0.054986	10.541220	16.337393	-886.264903	-963.167774
112.24	0.006579	0.055092	10.541336	18.212843	-926.758286	-960.612411
112.75	0.006578	0.055190	10.541240	18.838871	-943.368001	-962.709822
113.26	0.006579	0.055274	10.541209	20.375745	-979.482214	-963.411804
113.77	0.006579	0.055326	10.541475	20.739177	-981.709275	-957.555767
114.28	0.006579	0.055364	10.541753	21.706540	-997.552985	-951.427265
114.79	0.006579	0.055379	10.541763	21.167776	-984.926141	-951.212925
115.30	0.006579	0.055385	10.541586	21.729213	-1001.935342	-955.109744
115.81	0.006579	0.055354	10.541257	20.272440	-975.980261	-962.339699
116.32	0.006579	0.055311	10.541614	19.871019	-958.515845	-954.494949
116.83	0.006579	0.055239	10.541576	18.214590	-921.263943	-955.332985
117.34	0.006580	0.055174	10.541779	18.230849	-916.958977	-950.869431
117.85	0.006581	0.055093	10.541740	16.775527	-884.344555	-951.715155
118.36	0.006585	0.055038	10.541568	17.309369	-900.602505	-955.501275
118.87	0.006582	0.054985	10.541412	16.675160	-889.592748	-958.925342
119.38	0.006582	0.054980	10.540983	17.303651	-913.960215	-968.368827
119.89	0.006582	0.054986	10.540642	16.614763	-905.969632	-975.873564
120.40	0.006582	0.055027	10.540575	17.030272	-917.072085	-977.340269
120.91	0.006582	0.055057	10.540952	17.889708	-928.178013	-969.062291
121.42	0.006582	0.055082	10.541516	20.506356	-975.392083	-956.642177
121.93	0.006582	0.055081	10.541461	23.385535	-1042.945527	-957.859103
122.44	0.006582	0.055083	10.541362	28.635607	-1166.079738	-960.033386
122.95	0.006581	0.055068	10.540609	31.798153	-1256.255024	-976.607078
123.46	0.006580	0.055064	10.541088	30.335956	-1211.534179	-966.055380
123.97	0.006579	0.055064	10.541858	28.499584	-1151.517158	-949.128946
124.48	0.006579	0.055080	10.541888	27.193928	-1120.774299	-948.473507
124.99	0.006578	0.055072	10.541761	25.596486	-1086.926382	-951.263356
125.50	0.006577	0.055071	10.541471	24.701229	-1072.995415	-957.633099
126.01	0.006572	0.055036	10.542100	22.740930	-1013.375932	-943.807125
126.52	0.006571	0.055010	10.543965	22.541381	-965.753780	-902.761913
127.03	0.006571	0.054987	10.545500	22.332569	-925.560007	-869.006079
127.54	0.006565	0.054987	10.545473	22.311875	-925.711407	-869.604916
128.05	0.006563	0.054995	10.545309	22.118399	-925.031147	-873.204472
128.56	0.006561	0.055005	10.546406	21.526196	-886.089598	-849.061859
129.08	0.006555	0.054987	10.547104	20.861554	-854.688728	-833.702990
129.59	0.006589	0.054950	10.547502	20.337126	-833.455010	-824.963733
130.10	0.006568	0.054886	10.547771	19.761128	-813.973879	-819.028667
130.61	0.006568	0.054818	10.547781	19.320838	-803.616260	-818.816626
131.12	0.006560	0.054761	10.547860	18.944653	-793.138283	-817.082117
131.63	0.006581	0.054741	10.547825	18.818496	-791.047536	-817.857973
132.14	0.006571	0.054728	10.547858	18.730974	-788.254818	-817.115831
132.65	0.006591	0.054723	10.548461	18.697821	-773.598896	-803.863465
133.16	0.006576	0.054706	10.548429	18.590368	-771.860047	-804.564297
133.67	0.006586	0.054676	10.547439	18.394242	-790.168358	-826.335337
134.18	0.006567	0.054632	10.547487	18.106029	-782.432784	-825.285070
134.69	0.006585	0.054603	10.548366	17.915891	-757.775727	-805.939734
135.20	0.006579	0.054567	10.548424	17.809501	-753.996393	-804.670791
135.71	0.006611	0.054542	10.547605	17.679290	-769.899949	-822.700520
136.22	0.006634	0.054512	10.547442	17.477514	-769.006162	-826.278647
136.73	0.006982	0.054492	10.547418	17.349939	-766.612134	-826.796330
137.24	0.009534	0.054468	10.547363	17.195537	-764.345547	-828.024656
137.75	0.021223	0.054481	10.547229	17.275115	-769.247294	-830.953046
138.26	0.056750	0.054499	10.546969	17.397329	-778.075989	-836.691138
138.77	0.139146	0.054539	10.547191	17.656392	-778.909995	-831.798048
139.28	0.292458	0.054580	10.547477	17.922201	-778.437594	-825.510648
139.79	0.518166	0.054616	10.546874	18.158039	-797.767427	-838.770797
140.30	0.774720	0.054615	10.546066	18.154725	-816.329141	-856.549690
140.81	0.990071	0.054606	10.546204	18.084117	-811.510478	-853.503581
141.32	1.103507	0.054573	10.546394	17.852048	-801.796949	-849.333701
141.83	1.097382	0.054540	10.546103	17.636385	-803.551645	-855.743161
142.34	0.993854	0.054494	10.547155	17.355901	-772.818966	-832.586148
142.85	0.833964	0.054463	10.548192	17.798322	-759.083125	-809.768512
143.36	0.658386	0.054436	10.548223	17.624071	-754.361365	-809.090703
143.87	0.497229	0.054428	10.547376	17.574078	-772.757846	-827.736976
144.38	0.365135	0.054422	10.546619	17.530196	-789.193603	-844.378720
144.89	0.264030	0.054437	10.546791	17.633651	-787.607362	-840.593880
145.40	0.189195	0.054440	10.546225	17.650946	-801.059439	-853.046096
145.91	0.134683	0.054459	10.545803	17.781116	-813.803296	-862.344195
146.42	0.095112	0.054459	10.546352	17.782495	-801.168871	-850.261859
