Length [m]	OTDR [V]	Brillouin intensity [V]	Fitted Frequency [GHz]	Temperature [”]	Compensated Strain [レュ]	Uncompensated Strain [レュ]
0.51	0.006990	0.039627	10.503407	-150.715943	2034.222660	-1795.047293
1.02	0.007103	0.043110	10.475318	-128.374313	872.115796	-2412.996720
1.53	0.007076	0.046097	10.455471	-91.044253	-444.955742	-2849.643264
2.04	0.007114	0.048534	10.443670	-52.268638	-1609.722349	-3109.263044
2.55	0.007091	0.050555	10.436604	-26.797882	-2359.018547	-3264.719160
3.06	0.007016	0.052178	10.431974	-17.510657	-2679.580680	-3366.570825
3.57	0.006966	0.053579	10.430283	-21.187595	-2633.943393	-3403.777491
4.08	0.006928	0.054716	10.430129	-25.232867	-2544.371082	-3407.162385
4.59	0.006937	0.055725	10.429194	-13.799512	-2829.115342	-3427.721277
5.10	0.006953	0.056507	10.429894	7.276048	-3298.146070	-3412.342937
5.61	0.007001	0.057150	10.430315	26.911016	-3740.418353	-3403.072932
6.12	0.007004	0.057549	10.429866	32.287902	-3874.540133	-3412.943648
6.63	0.006994	0.057823	10.429733	25.274757	-3716.167492	-3415.869803
7.14	0.006953	0.057942	10.429560	9.856420	-3365.235066	-3419.678191
7.65	0.006939	0.058064	10.429578	-0.771846	-3120.167758	-3419.288762
8.16	0.006927	0.058145	10.429937	2.767591	-3193.369815	-3411.395611
8.67	0.006972	0.058289	10.430242	19.957774	-3582.033717	-3404.672263
9.18	0.007038	0.058380	10.429616	38.868475	-4031.785305	-3418.440667
9.69	0.007073	0.058456	10.428305	52.111446	-4366.888568	-3447.300668
10.20	0.007052	0.058383	10.427835	52.075940	-4376.892181	-3457.622836
10.71	0.007010	0.058304	10.428860	45.073715	-4192.063023	-3435.072202
11.22	0.006937	0.058172	10.429383	38.590028	-4030.748122	-3423.565582
11.73	0.006908	0.058120	10.429231	42.376503	-4121.430600	-3426.922496
12.24	0.006904	0.058078	10.428418	51.683830	-4354.428769	-3444.805050
12.75	0.006957	0.058126	10.427309	58.580311	-4538.750476	-3469.193596
13.26	0.006996	0.058107	10.427547	55.959348	-4472.942533	-3463.971660
13.77	0.007007	0.058078	10.427890	48.638525	-4296.511799	-3456.428282
14.28	0.006956	0.057969	10.428590	37.524736	-4024.513780	-3441.010888
14.79	0.006926	0.057914	10.429501	31.151325	-3856.799459	-3420.978335
15.30	0.006879	0.057870	10.429455	27.000277	-3762.304680	-3421.990356
15.81	0.006867	0.057955	10.429002	26.209943	-3754.559414	-3431.956715
16.32	0.006874	0.058036	10.428776	25.196445	-3736.438310	-3436.925869
16.83	0.006869	0.058153	10.428370	22.774974	-3690.067449	-3445.864515
17.34	0.006793	0.058162	10.429085	20.475963	-3620.658719	-3430.138161
17.85	0.006690	0.058143	10.429987	24.178323	-3685.063918	-3410.276071
18.36	0.006552	0.058035	10.429653	27.942594	-3779.432971	-3417.637194
18.87	0.006430	0.057966	10.429022	33.238951	-3915.910206	-3431.523095
19.38	0.006342	0.057892	10.429613	34.288190	-3926.419610	-3418.508280
19.89	0.006307	0.057911	10.430767	35.894271	-3936.792673	-3393.135969
20.40	0.006285	0.057905	10.430852	35.485849	-3925.418171	-3391.254139
20.91	0.006272	0.057923	10.430825	35.779796	-3932.813706	-3391.854111
21.42	0.006218	0.057856	10.431524	43.778117	-4100.812210	-3376.477056
21.93	0.006173	0.057807	10.432187	47.348821	-4167.705304	-3361.879167
22.44	0.006122	0.057717	10.432676	47.688576	-4164.252093	-3351.124612
22.95	0.006102	0.057697	10.433180	46.316026	-4121.045106	-3340.048481
23.46	0.006084	0.057678	10.433347	37.337403	-3910.496389	-3336.362697
23.97	0.006133	0.057755	10.433290	36.619239	-3895.287661	-3337.624866
24.48	0.006142	0.057791	10.432863	33.094840	-3824.000989	-3347.014907
24.99	0.006170	0.057873	10.432061	33.911621	-3861.310085	-3364.668898
25.50	0.006165	0.057870	10.431932	35.222045	-3894.435200	-3367.492075
26.02	0.006146	0.057880	10.432737	38.144172	-3943.136488	-3349.782756
26.53	0.006128	0.057837	10.433035	34.011976	-3841.155143	-3343.239344
27.04	0.006129	0.057870	10.432935	33.848248	-3839.690139	-3345.437095
27.55	0.006131	0.057862	10.432830	30.316179	-3760.805911	-3347.748204
28.06	0.006162	0.057908	10.432879	28.323433	-3713.795334	-3346.662438
28.57	0.006181	0.057872	10.433040	33.762407	-3835.289002	-3343.123775
29.08	0.006185	0.057842	10.433001	35.870341	-3884.697826	-3343.967884
29.59	0.006169	0.057742	10.432352	38.754719	-3966.083200	-3358.265004
30.10	0.006144	0.057695	10.432155	42.365176	-4053.717885	-3362.579717
30.61	0.006102	0.057636	10.432189	37.122624	-3932.260030	-3361.839389
31.12	0.006113	0.057677	10.433045	40.402426	-3988.020229	-3343.009569
31.63	0.006111	0.057676	10.433593	39.258143	-3949.032487	-3330.945766
32.14	0.006145	0.057724	10.434102	34.402251	-3825.520992	-3319.755971
32.65	0.006149	0.057675	10.434941	37.457264	-3876.491583	-3301.293355
33.16	0.006145	0.057644	10.434936	34.198404	-3801.600427	-3301.414211
33.67	0.006130	0.057567	10.435932	35.259012	-3803.030218	-3279.488653
34.18	0.006120	0.057541	10.436704	33.239662	-3738.757657	-3262.520764
34.69	0.006105	0.057533	10.437029	36.409520	-3804.216739	-3255.356968
35.20	0.006139	0.057574	10.437475	30.678416	-3662.018061	-3245.559774
35.71	0.006147	0.057636	10.438004	32.510826	-3691.984913	-3233.908209
36.22	0.006180	0.057690	10.438208	30.886213	-3649.880703	-3229.418965
36.73	0.006177	0.057712	10.438438	32.240512	-3675.747117	-3224.354602
37.24	0.006164	0.057702	10.438261	36.152194	-3769.875007	-3228.248728
37.75	0.006139	0.057663	10.437702	38.601583	-3839.155910	-3240.551065
38.26	0.006130	0.057621	10.437272	40.368568	-3889.744328	-3250.007150
38.77	0.006125	0.057575	10.436995	39.563255	-3877.606710	-3256.112535
39.28	0.006145	0.057572	10.437561	38.700977	-3844.708164	-3243.664845
39.79	0.006150	0.057541	10.437924	35.865898	-3771.075435	-3235.680489
40.30	0.006161	0.057550	10.437937	35.762464	-3768.382478	-3235.382905
40.81	0.006146	0.057506	10.438641	36.055675	-3758.908218	-3219.906875
41.32	0.006135	0.057471	10.439199	38.027587	-3791.420327	-3207.619978
41.83	0.006116	0.057394	10.439850	38.283271	-3782.294937	-3193.300759
42.34	0.006123	0.057366	10.440055	38.755438	-3788.439976	-3188.794436
42.85	0.006124	0.057304	10.440602	35.918210	-3710.513968	-3176.761888
43.36	0.006143	0.057294	10.440686	32.315977	-3625.648829	-3174.908494
43.87	0.006147	0.057260	10.439899	30.252136	-3596.300404	-3192.231864
44.38	0.006149	0.057277	10.439406	31.452088	-3635.279686	-3203.065185
44.89	0.006139	0.057245	10.439626	33.484180	-3676.997347	-3198.238029
45.40	0.006140	0.057270	10.439800	37.560189	-3766.810227	-3194.407680
45.91	0.006126	0.057260	10.440041	39.096290	-3796.609094	-3189.102390
46.42	0.006136	0.057296	10.440300	39.577427	-3801.701702	-3183.395173
46.93	0.006136	0.057282	10.440842	36.588284	-3720.387530	-3171.466460
47.44	0.006146	0.057313	10.441026	34.693719	-3672.543160	-3167.429413
47.95	0.006139	0.057284	10.441353	33.872504	-3646.103325	-3160.241025
48.46	0.006144	0.057291	10.441706	36.654757	-3702.005340	-3152.471948
48.97	0.006124	0.057239	10.442980	37.963221	-3702.731409	-3124.432564
49.48	0.006123	0.057225	10.447593	40.478060	-3654.230376	-3022.944900
49.99	0.006108	0.057149	10.467978	40.596275	-3186.826201	-2574.489846
50.50	0.006119	0.057077	10.503297	39.732484	-2352.379591	-1797.474596
51.01	0.006123	0.056855	10.535879	38.570805	-1574.179355	-1080.654245
51.53	0.006135	0.056514	10.556013	40.498180	-1154.207044	-637.718126
52.04	0.006132	0.055943	10.559752	42.438915	-1112.647689	-555.458692
52.55	0.006138	0.055244	10.562781	45.606901	-1115.706428	-488.812000
53.06	0.006128	0.054376	10.565119	46.780123	-1088.803370	-437.386748
53.57	0.006124	0.053508	10.565815	45.908106	-1052.681838	-422.078489
54.08	0.006108	0.052619	10.566410	41.565218	-938.975723	-408.977260
54.59	0.006126	0.051854	10.566806	37.335286	-832.481593	-400.275206
55.10	0.006115	0.051125	10.566904	32.775693	-725.255110	-398.113462
55.61	0.006124	0.050548	10.567399	31.799649	-691.363197	-387.216327
56.12	0.006109	0.050011	10.567265	30.495458	-664.426708	-390.159640
56.63	0.006120	0.049616	10.567296	30.628896	-666.798300	-389.491807
57.14	0.006103	0.049259	10.567465	29.184584	-629.655040	-385.775689
57.65	0.006111	0.049039	10.567745	28.598290	-609.699888	-379.614537
58.16	0.006102	0.048838	10.567617	24.156191	-510.385786	-382.420457
58.67	0.006114	0.048745	10.567386	22.937255	-487.660274	-387.508561
59.18	0.006109	0.048627	10.567551	20.427499	-426.086910	-383.884061
59.69	0.006122	0.048559	10.567789	20.182882	-414.953094	-378.634903
60.20	0.006112	0.048439	10.568251	20.403807	-409.384658	-368.471935
60.71	0.006114	0.048368	10.568840	20.935935	-408.045057	-355.509312
61.22	0.006103	0.048260	10.568869	20.109933	-388.380462	-354.888984
61.73	0.006113	0.048241	10.568774	19.819057	-383.876952	-356.980295
62.24	0.006098	0.048219	10.568895	17.861289	-336.015205	-354.314507
62.75	0.006110	0.048280	10.569015	17.201927	-318.062639	-351.668104
63.26	0.006101	0.048323	10.568780	17.297457	-325.672092	-356.829098
63.77	0.006111	0.048410	10.568593	18.893335	-366.727636	-360.948995
64.28	0.006135	0.048452	10.569065	20.648900	-396.248850	-350.559735
64.79	0.006255	0.048530	10.569315	23.686421	-460.418705	-345.072070
65.30	0.006555	0.048556	10.569105	23.274756	-455.786631	-349.693080
65.81	0.007235	0.048616	10.569191	23.802912	-465.961355	-347.801261
66.32	0.008373	0.048603	10.568921	21.737736	-424.648904	-353.741407
66.83	0.009935	0.048627	10.569048	21.650362	-419.713950	-350.952545
67.34	0.011530	0.048574	10.569253	21.497083	-411.454752	-346.439840
67.85	0.012736	0.048572	10.568829	22.345713	-440.752578	-355.752487
68.36	0.013206	0.048515	10.568822	22.553628	-445.721620	-355.926953
68.87	0.012965	0.048525	10.569091	23.524746	-461.870722	-350.007320
69.38	0.012156	0.048484	10.568930	21.167826	-411.323677	-353.544809
69.89	0.011114	0.048488	10.568708	20.756540	-406.979026	-358.431676
70.40	0.010023	0.048425	10.568906	18.312629	-346.150724	-354.072057
70.91	0.009096	0.048407	10.569312	18.366956	-338.035067	-345.137528
71.42	0.008335	0.048333	10.569445	18.563613	-339.489785	-342.206899
71.93	0.007774	0.048295	10.569288	19.751298	-370.461641	-345.671245
72.44	0.007345	0.048241	10.569246	19.874589	-374.265366	-346.592344
72.95	0.007046	0.048265	10.569457	20.339732	-380.110195	-341.953874
73.46	0.006817	0.048268	10.569451	19.192381	-353.835823	-342.084809
73.97	0.006664	0.048340	10.569674	19.461931	-354.892621	-337.173970
74.48	0.006545	0.048372	10.569659	19.050031	-345.748394	-337.495965
74.99	0.006475	0.048446	10.569715	20.459854	-376.920865	-336.273851
75.50	0.006408	0.048460	10.570214	21.226143	-383.038498	-325.282877
76.01	0.006374	0.048512	10.570060	22.767304	-422.067662	-328.671320
76.52	0.006326	0.048512	10.569907	22.358255	-416.192399	-332.049002
77.03	0.006317	0.048543	10.569510	22.514154	-428.931487	-340.777564
77.55	0.006276	0.048521	10.569771	21.197826	-392.612849	-335.037710
78.06	0.006278	0.048542	10.569832	21.117742	-389.354998	-333.688549
78.57	0.006258	0.048503	10.570101	20.734747	-374.340041	-327.775742
79.08	0.006256	0.048503	10.570351	21.318512	-382.003897	-322.267690
79.59	0.006238	0.048446	10.570528	20.835110	-366.812848	-318.391682
80.10	0.006240	0.048436	10.570176	21.614659	-392.868597	-326.128617
80.61	0.006226	0.048390	10.569903	20.655659	-377.083096	-332.129018
81.12	0.006239	0.048400	10.569839	20.715244	-379.933186	-333.539328
81.63	0.006234	0.048377	10.570359	19.965957	-350.704821	-322.111504
82.14	0.006249	0.048402	10.570822	20.555968	-353.596495	-311.914101
82.65	0.006252	0.048381	10.571193	20.087923	-334.275699	-303.761481
83.16	0.006273	0.048405	10.571315	21.475058	-363.377687	-301.062510
83.67	0.006274	0.048373	10.570887	21.290813	-369.016117	-310.486796
84.18	0.006284	0.048394	10.570992	22.356397	-391.131427	-308.184003
84.69	0.006278	0.048384	10.571020	21.629593	-373.756332	-307.569402
85.20	0.006285	0.048424	10.571213	21.685741	-370.598791	-303.324464
85.71	0.006286	0.048428	10.570999	20.980935	-359.287901	-308.011477
86.22	0.006298	0.048466	10.570714	21.471551	-377.162522	-314.288942
86.73	0.006272	0.048427	10.570822	20.821516	-359.709567	-311.914328
87.24	0.006246	0.048401	10.570797	21.192791	-368.831792	-312.463396
87.75	0.006165	0.048293	10.571203	20.600979	-345.854341	-303.540426
88.26	0.006089	0.048204	10.571018	20.900143	-357.002863	-307.605859
88.77	0.006009	0.048095	10.570773	19.054440	-320.174422	-313.004009
89.28	0.006041	0.048133	10.570688	19.982283	-343.483886	-314.864916
89.79	0.006117	0.048247	10.570157	20.294263	-362.922460	-326.556841
90.30	0.006124	0.048440	10.570119	22.598888	-416.837782	-327.380683
90.81	0.006143	0.048508	10.570629	22.492631	-402.632953	-316.163865
91.32	0.006170	0.048505	10.570360	23.463333	-431.174936	-322.074996
91.83	0.006200	0.048426	10.570201	22.392649	-410.206527	-325.583801
92.34	0.006202	0.048410	10.570531	22.798163	-411.933094	-318.326279
92.85	0.006202	0.048338	10.570656	21.566308	-380.692089	-315.575088
93.36	0.006216	0.048327	10.570732	21.782342	-383.911607	-313.902407
93.87	0.006217	0.048269	10.571569	20.558132	-336.410518	-295.472778
94.38	0.006222	0.048252	10.571617	21.015708	-345.839057	-294.418999
94.89	0.006223	0.048147	10.570955	20.100430	-340.052785	-308.997642
95.40	0.006237	0.048058	10.571173	20.120470	-335.484512	-304.199901
95.91	0.006242	0.047940	10.570638	18.657473	-314.137813	-315.962497
96.42	0.006242	0.047931	10.569809	19.476439	-352.100106	-334.191580
96.93	0.006242	0.047940	10.570057	18.787468	-330.525970	-328.740735
97.44	0.006242	0.048028	10.570529	20.006209	-347.690897	-318.352623
97.95	0.006242	0.048048	10.570359	19.571445	-341.622454	-322.110706
98.46	0.006242	0.048067	10.568693	18.314256	-351.106515	-358.763683
98.97	0.006242	0.048010	10.564799	10.997843	-272.477995	-444.417479
99.48	0.006242	0.048026	10.560285	-4.992405	-8.492755	-543.723591
99.99	0.006242	0.048058	10.554159	-36.316544	571.287791	-678.501228
100.50	0.006242	0.048205	10.545323	-76.887705	1301.425371	-872.903907
101.01	0.006237	0.048324	10.535713	-117.802383	2021.632116	-1084.322799
101.52	0.006230	0.048481	10.527444	-147.992837	2525.913605	-1266.225285
102.03	0.006227	0.048567	10.522023	-165.925634	2813.679975	-1385.502043
102.54	0.006227	0.048716	10.519399	-171.614333	2884.120242	-1443.224405
103.06	0.006227	0.048833	10.518206	-168.059799	2774.786517	-1469.465905
103.57	0.006227	0.049044	10.517876	-155.783429	2484.582378	-1476.721606
104.08	0.006227	0.049218	10.518402	-137.735856	2081.247155	-1465.166248
104.59	0.006227	0.049421	10.520019	-114.740587	1589.205838	-1429.583768
105.10	0.006227	0.049544	10.523581	-91.108611	1127.366703	-1351.210109
105.61	0.006227	0.049656	10.527211	-67.718931	672.660131	-1271.353116
106.12	0.006227	0.049658	10.530914	-48.003822	304.231833	-1189.883170
106.63	0.006230	0.049671	10.533263	-30.838345	-36.752202	-1138.220258
107.14	0.006232	0.049636	10.534667	-17.894414	-302.340252	-1107.335852
107.65	0.006237	0.049640	10.535609	-7.023487	-530.856278	-1086.608460
108.16	0.006232	0.049593	10.536882	0.320158	-670.534825	-1058.592591
108.67	0.006230	0.049563	10.537818	6.286928	-786.292877	-1037.993061
109.18	0.006230	0.049451	10.538399	9.261844	-841.387907	-1025.223596
109.69	0.006230	0.049367	10.538498	12.288822	-908.773836	-1023.035281
110.20	0.006230	0.049237	10.538755	13.224401	-924.382681	-1017.380649
110.71	0.006230	0.049188	10.539056	15.561611	-971.255818	-1010.771393
111.22	0.006230	0.049144	10.538753	15.784938	-983.374608	-1017.427629
111.73	0.006230	0.049185	10.539274	18.392304	-1031.378169	-1005.964438
112.24	0.006227	0.049191	10.539975	18.317463	-1013.496982	-990.550894
112.75	0.006227	0.049238	10.539628	19.824563	-1056.191712	-998.183842
113.26	0.006227	0.049228	10.539294	19.844372	-1064.360500	-1005.541130
113.77	0.006227	0.049262	10.539123	21.139954	-1098.129629	-1009.304545
114.28	0.006226	0.049248	10.538944	20.935241	-1097.542368	-1013.239543
114.79	0.006226	0.049286	10.539255	22.015804	-1115.229387	-1006.383663
115.30	0.006226	0.049269	10.539106	21.112535	-1097.879101	-1009.667643
115.81	0.006226	0.049288	10.539117	21.552495	-1107.744227	-1009.417142
116.32	0.006222	0.049232	10.538914	20.312732	-1083.906694	-1013.901828
116.83	0.006222	0.049223	10.539238	20.072026	-1070.883254	-1006.764252
117.34	0.006220	0.049158	10.539346	18.336791	-1028.439345	-1004.380064
117.85	0.006222	0.049134	10.539058	18.137421	-1030.506498	-1010.729809
118.36	0.006223	0.049064	10.538896	17.079023	-1009.874663	-1014.289917
118.87	0.006226	0.049044	10.538752	17.274924	-1017.703126	-1017.455823
119.38	0.006223	0.048995	10.538529	16.477991	-1004.508247	-1022.368663
119.89	0.006223	0.048999	10.538802	16.476595	-998.180354	-1016.363102
120.40	0.006223	0.048973	10.538955	15.618058	-974.887652	-1012.996319
120.91	0.006223	0.048998	10.538566	17.260869	-1021.665837	-1021.544495
121.42	0.006223	0.048972	10.538198	18.538346	-1059.552638	-1029.633338
121.93	0.006223	0.048982	10.538107	23.341771	-1172.226530	-1031.637192
122.44	0.006223	0.048935	10.538025	27.530409	-1270.552998	-1033.454815
122.95	0.006223	0.048934	10.538606	32.434981	-1370.053877	-1020.671839
123.46	0.006222	0.048907	10.538705	30.272468	-1317.990361	-1018.493881
123.97	0.006220	0.048949	10.538561	25.960705	-1222.044709	-1021.650964
124.48	0.006219	0.048964	10.538274	25.625857	-1220.960554	-1027.969571
124.99	0.006219	0.049038	10.538211	25.043661	-1209.011012	-1029.355043
125.50	0.006218	0.049053	10.538810	23.604716	-1162.077564	-1016.182144
126.01	0.006216	0.049094	10.540610	22.150031	-1087.078845	-976.583291
126.52	0.006215	0.049071	10.542525	21.866339	-1036.384833	-934.455487
127.03	0.006212	0.049084	10.543465	21.940774	-1016.422208	-913.778542
127.54	0.006209	0.049044	10.542762	20.840583	-1007.305665	-929.240859
128.05	0.006208	0.049045	10.543674	20.797412	-985.272028	-909.170834
128.56	0.006207	0.048989	10.545303	20.075564	-931.076342	-873.324041
129.08	0.006197	0.048967	10.544581	19.824494	-941.954680	-889.214069
129.59	0.006222	0.048905	10.544505	18.609353	-915.735046	-890.885791
130.10	0.006213	0.048908	10.544767	18.310276	-902.812333	-885.126046
130.61	0.006193	0.048893	10.544963	18.201730	-895.802873	-880.823214
131.12	0.006201	0.048940	10.544943	18.542530	-904.106030	-881.260152
131.63	0.006192	0.048949	10.544787	18.607896	-909.209436	-884.692976
132.14	0.006213	0.049005	10.544924	19.017806	-915.489135	-881.682168
132.65	0.006204	0.048994	10.545098	18.941610	-909.703762	-877.836628
133.16	0.006213	0.049023	10.545355	19.154592	-908.691757	-872.194500
133.67	0.006204	0.049000	10.545536	18.985613	-900.612124	-868.197824
134.18	0.006209	0.049030	10.546298	19.204386	-888.082111	-851.441444
134.69	0.006207	0.049018	10.547176	19.116581	-865.808686	-832.122778
135.20	0.006215	0.049056	10.546696	19.717430	-890.705441	-842.678134
135.71	0.006214	0.049045	10.546531	19.991363	-900.826206	-846.317214
136.22	0.006225	0.049090	10.546887	20.493314	-904.177685	-838.492088
136.73	0.006220	0.049087	10.546918	20.467674	-902.855984	-837.794321
137.24	0.006225	0.049121	10.547541	20.718458	-894.264073	-824.091587
137.75	0.006220	0.049094	10.547527	20.520611	-890.040392	-824.407051
138.26	0.006240	0.049084	10.547410	20.446708	-891.042831	-826.986076
138.77	0.006434	0.049003	10.547190	19.853533	-882.456445	-831.820760
139.28	0.008183	0.048952	10.546842	19.476523	-881.802184	-839.475249
139.79	0.016605	0.048863	10.546555	18.824606	-873.419067	-845.793709
140.30	0.043673	0.048821	10.545866	18.511240	-882.096029	-860.951788
140.81	0.108598	0.048740	10.546186	17.745461	-857.079398	-853.903697
141.32	0.233853	0.048700	10.546849	17.337347	-832.403914	-839.327229
141.83	0.425813	0.048622	10.547691	16.527935	-794.349629	-820.800595
142.34	0.653516	0.048599	10.548732	16.595185	-771.893702	-797.903051
142.85	0.855193	0.048545	10.548240	16.310918	-776.682361	-808.713065
143.36	0.972249	0.048565	10.547119	16.462045	-806.014549	-833.374661
143.87	0.982300	0.048536	10.547502	16.250645	-792.320765	-824.954141
144.38	0.900919	0.048579	10.548714	16.561575	-771.517788	-798.282489
144.89	0.763266	0.048587	10.548445	16.621752	-779.115508	-804.208586
145.40	0.606817	0.048647	10.547704	17.064677	-806.397768	-820.507291
145.91	0.460375	0.048665	10.548302	17.209761	-795.958860	-807.363707
