Length [m]	OTDR [V]	Brillouin intensity [V]	Fitted Frequency [GHz]	Temperature [”]	Compensated Strain [レュ]	Uncompensated Strain [レュ]
0.51	0.007034	0.073684	10.468660	-117.870934	532.025999	-2559.471503
1.02	0.007059	0.077723	10.452029	-104.561016	-157.940380	-2925.367189
1.53	0.007040	0.081111	10.444064	-79.172443	-926.076390	-3100.599304
2.04	0.007063	0.083982	10.441567	-58.299249	-1464.155027	-3155.529790
2.55	0.007079	0.086540	10.441483	-42.402182	-1832.038249	-3157.378624
3.06	0.007068	0.088723	10.441128	-25.477662	-2229.826045	-3165.192196
3.57	0.007064	0.090619	10.440746	-12.955827	-2526.874903	-3173.587029
4.08	0.007048	0.092141	10.439996	-4.414971	-2740.788204	-3190.095036
4.59	0.007056	0.093409	10.440519	11.695372	-3099.573873	-3178.582455
5.10	0.007029	0.094360	10.441371	23.384169	-3349.004249	-3159.846100
5.61	0.007067	0.095123	10.441324	29.543164	-3491.860759	-3160.874935
6.12	0.007043	0.095637	10.440457	28.557491	-3489.154848	-3179.937712
6.63	0.007064	0.096021	10.439561	26.272119	-3457.222596	-3199.660891
7.14	0.007021	0.096229	10.439095	21.257688	-3352.546236	-3209.919291
7.65	0.007056	0.096389	10.439134	22.036926	-3369.575620	-3209.052772
8.16	0.007017	0.096445	10.438703	25.632036	-3462.274609	-3218.535329
8.67	0.007047	0.096492	10.438940	31.549752	-3593.034631	-3213.323396
9.18	0.007039	0.096453	10.439675	33.797061	-3627.807577	-3197.145797
9.69	0.007053	0.096420	10.438798	35.833284	-3694.901007	-3216.434035
10.20	0.007016	0.096308	10.439655	34.082868	-3634.843603	-3197.581585
10.71	0.007032	0.096231	10.439623	35.235171	-3662.127461	-3198.304888
11.22	0.006996	0.096119	10.438352	36.155915	-3712.630945	-3226.262194
11.73	0.007018	0.096084	10.438071	40.079501	-3809.416398	-3232.429991
12.24	0.007001	0.096051	10.437367	42.001412	-3869.894505	-3247.917961
12.75	0.007025	0.096123	10.436846	43.758755	-3922.381993	-3259.397300
13.26	0.007006	0.096170	10.438316	41.667450	-3840.338527	-3227.057677
13.77	0.007020	0.096275	10.439803	41.367691	-3799.142393	-3194.342760
14.28	0.006989	0.096330	10.440402	38.596424	-3721.535408	-3181.166116
14.79	0.007008	0.096424	10.439225	38.175645	-3738.985088	-3207.051172
15.30	0.006972	0.096460	10.438285	35.529698	-3699.759252	-3227.734636
15.81	0.006974	0.096531	10.437508	35.006572	-3705.629183	-3244.821090
16.32	0.006907	0.096535	10.436983	32.859641	-3668.323437	-3256.378481
16.83	0.006865	0.096557	10.437682	33.200855	-3660.056430	-3240.999976
17.34	0.006755	0.096508	10.438117	32.742874	-3639.466552	-3231.415796
17.85	0.006670	0.096493	10.437522	35.164157	-3708.944436	-3244.523191
18.36	0.006553	0.096427	10.437101	34.889433	-3712.316283	-3253.772166
18.87	0.006483	0.096392	10.438226	35.621822	-3703.247281	-3229.038979
19.38	0.006387	0.096300	10.439430	35.000948	-3661.169248	-3202.534041
19.89	0.006350	0.096254	10.439980	37.450167	-3704.882189	-3190.450695
20.40	0.006280	0.096160	10.440312	38.233515	-3715.248697	-3183.138154
20.91	0.006273	0.096095	10.440391	40.571846	-3767.261397	-3181.406934
21.42	0.006224	0.095975	10.440673	40.282411	-3754.086218	-3175.194633
21.93	0.006228	0.095912	10.440675	41.270008	-3776.777470	-3175.153715
22.44	0.006188	0.095812	10.441145	38.153256	-3694.179253	-3164.802268
22.95	0.006203	0.095764	10.441185	37.508019	-3678.402659	-3163.921394
23.46	0.006168	0.095684	10.440677	35.886213	-3652.798023	-3175.109524
23.97	0.006185	0.095669	10.441389	36.734653	-3655.909981	-3159.447513
24.48	0.006162	0.095617	10.441084	36.036577	-3646.877623	-3166.160244
24.99	0.006176	0.095632	10.439473	37.457446	-3716.732270	-3201.594716
25.50	0.006148	0.095608	10.440149	35.727544	-3661.322571	-3186.725295
26.02	0.006174	0.095636	10.440655	36.291735	-3662.632881	-3175.586376
26.53	0.006150	0.095624	10.440467	34.685456	-3629.998207	-3179.727577
27.04	0.006171	0.095664	10.441344	36.112662	-3642.618740	-3160.426962
27.55	0.006147	0.095667	10.441441	35.994983	-3637.670699	-3158.291059
28.06	0.006180	0.095715	10.441577	38.006779	-3680.843384	-3155.297554
28.57	0.006162	0.095710	10.441527	37.518740	-3670.765318	-3156.400671
29.08	0.006183	0.095752	10.440779	38.934149	-3720.601468	-3172.859262
29.59	0.006159	0.095737	10.440348	37.625108	-3700.409952	-3182.343142
30.10	0.006176	0.095758	10.440261	38.561242	-3723.971280	-3184.262249
30.61	0.006148	0.095714	10.440339	37.431181	-3696.143710	-3182.531921
31.12	0.006169	0.095720	10.440998	39.087319	-3719.074213	-3168.039018
31.63	0.006143	0.095668	10.441608	37.697844	-3673.015180	-3154.613948
32.14	0.006166	0.095660	10.441388	39.072810	-3709.750662	-3159.463843
32.65	0.006143	0.095611	10.442169	37.133674	-3647.101587	-3142.283209
33.16	0.006163	0.095601	10.443270	38.249572	-3647.396967	-3118.061446
33.67	0.006136	0.095582	10.443949	35.870222	-3576.969445	-3103.127401
34.18	0.006164	0.095583	10.444086	36.916200	-3597.893230	-3100.118539
34.69	0.006148	0.095614	10.443606	36.840343	-3607.205973	-3110.667719
35.20	0.006172	0.095631	10.443737	35.596119	-3575.547495	-3107.789913
35.71	0.006160	0.095659	10.444016	36.682328	-3594.112553	-3101.647611
36.22	0.006178	0.095667	10.443929	35.512391	-3569.198490	-3103.572112
36.73	0.006152	0.095661	10.443829	34.617869	-3550.894513	-3105.754277
37.24	0.006177	0.095616	10.443946	35.032112	-3557.749651	-3103.197235
37.75	0.006148	0.095544	10.444416	34.967189	-3545.416602	-3092.858306
38.26	0.006172	0.095474	10.445163	35.518870	-3540.879748	-3076.416441
38.77	0.006155	0.095385	10.445301	34.751047	-3520.016238	-3073.374935
39.28	0.006174	0.095333	10.444643	36.011727	-3564.207218	-3087.846197
39.79	0.006152	0.095275	10.443913	33.740224	-3528.762760	-3103.914502
40.30	0.006171	0.095249	10.444195	34.940960	-3549.898563	-3097.709625
40.81	0.006145	0.095189	10.445007	33.594140	-3500.167282	-3079.844927
41.32	0.006162	0.095158	10.445669	35.746812	-3534.448232	-3065.276104
41.83	0.006140	0.095096	10.445615	33.632720	-3487.034438	-3066.470293
42.34	0.006161	0.095078	10.445328	35.630569	-3539.637453	-3072.778669
42.85	0.006137	0.095034	10.445996	33.847923	-3483.201247	-3058.088236
43.36	0.006163	0.095040	10.446096	34.306682	-3491.443710	-3055.877071
43.87	0.006139	0.095007	10.444586	33.422307	-3505.911251	-3089.097335
44.38	0.006163	0.095013	10.444308	35.407032	-3558.031003	-3095.232921
44.89	0.006137	0.094990	10.445219	34.487318	-3515.830703	-3075.173446
45.40	0.006159	0.095024	10.446292	36.525819	-3538.011002	-3051.568775
45.91	0.006135	0.095039	10.446810	35.438379	-3501.046169	-3040.186453
46.42	0.006157	0.095106	10.446047	36.622823	-3545.912669	-3056.976145
46.93	0.006130	0.095124	10.445734	35.382628	-3524.574550	-3063.854516
47.44	0.006156	0.095144	10.446585	36.497302	-3530.612094	-3045.137112
47.95	0.006136	0.095125	10.446766	35.657236	-3507.100824	-3041.156245
48.46	0.006152	0.095137	10.446599	37.356039	-3550.059653	-3044.831597
48.97	0.006125	0.095098	10.448957	36.212807	-3469.358184	-2992.953808
49.48	0.006145	0.095079	10.467238	38.029384	-3089.550147	-2590.763554
49.99	0.006121	0.094938	10.518044	37.374269	-1902.730984	-1473.036094
50.50	0.006139	0.094653	10.555491	39.898408	-1097.192150	-649.202040
51.01	0.006116	0.094047	10.564866	39.764129	-877.872688	-442.940668
51.53	0.006139	0.093104	10.567720	42.047751	-864.637240	-380.170220
52.04	0.006117	0.091742	10.568700	41.279999	-824.341508	-358.590662
52.55	0.006142	0.090157	10.569330	41.398550	-812.550364	-344.739813
53.06	0.006122	0.088439	10.570085	38.161023	-720.602177	-328.121436
53.57	0.006145	0.086824	10.570077	36.871516	-691.110384	-328.304791
54.08	0.006118	0.085351	10.570364	32.637912	-587.036364	-321.991932
54.59	0.006143	0.084176	10.570530	31.599853	-559.306926	-318.334969
55.10	0.006118	0.083208	10.570582	27.781656	-470.211855	-317.188876
55.61	0.006141	0.082517	10.571021	27.596493	-455.839528	-307.544952
56.12	0.006108	0.081983	10.570955	24.979478	-397.112394	-308.990755
56.63	0.006137	0.081624	10.570638	25.747382	-422.109886	-315.973913
57.14	0.006105	0.081319	10.570696	23.465341	-368.220750	-314.679131
57.65	0.006130	0.081137	10.570912	24.748476	-392.788005	-309.938167
58.16	0.006099	0.080953	10.571272	22.896704	-341.856184	-302.016295
58.67	0.006121	0.080856	10.571123	23.804207	-366.192157	-305.303049
59.18	0.006095	0.080747	10.571524	22.518944	-327.346017	-296.470047
59.69	0.006117	0.080701	10.572101	23.964065	-347.299296	-283.770799
60.20	0.006092	0.080627	10.571947	22.117369	-308.356010	-287.173391
60.71	0.006113	0.080601	10.571656	23.366823	-343.831521	-293.577445
61.22	0.006094	0.080528	10.571409	21.820647	-313.935945	-299.011718
61.73	0.006113	0.080488	10.571531	23.049470	-339.389513	-296.308805
62.24	0.006089	0.080406	10.571568	20.735972	-285.293638	-295.507583
62.75	0.006120	0.080379	10.571856	21.665294	-300.037815	-289.165558
63.26	0.006101	0.080348	10.571874	20.326596	-268.812338	-288.775290
63.77	0.006122	0.080381	10.571963	21.888835	-302.708713	-286.804683
64.28	0.006122	0.080396	10.572121	20.959956	-277.681514	-283.327971
64.79	0.006240	0.080461	10.572164	22.888754	-321.106992	-282.398116
65.30	0.006502	0.080474	10.572539	21.682738	-284.689194	-274.141379
65.81	0.007132	0.080519	10.572607	23.416654	-323.043348	-272.653281
66.32	0.008165	0.080511	10.572114	22.059161	-303.157230	-283.492417
66.83	0.009633	0.080533	10.572212	23.477431	-333.549731	-281.340807
67.34	0.011153	0.080502	10.572091	22.179037	-306.449925	-284.001036
67.85	0.012329	0.080510	10.572249	23.788742	-339.862063	-280.526218
68.36	0.012832	0.080463	10.572964	21.939399	-280.788561	-264.784639
68.87	0.012653	0.080458	10.573244	22.892250	-296.282594	-258.641224
69.38	0.011926	0.080420	10.573063	21.277946	-263.290669	-262.617874
69.89	0.010953	0.080428	10.572643	22.018623	-290.029242	-271.859714
70.40	0.009918	0.080396	10.572830	20.863606	-259.110851	-267.729039
70.91	0.009040	0.080418	10.572974	22.435417	-291.979842	-264.568208
71.42	0.008297	0.080398	10.572778	20.926837	-261.785626	-268.892043
71.93	0.007783	0.080419	10.573244	22.710587	-292.088169	-258.629193
72.44	0.007376	0.080408	10.573499	21.236398	-252.272146	-253.019574
72.95	0.007119	0.080433	10.573522	22.351165	-277.397629	-252.508213
73.46	0.006898	0.080421	10.573023	21.187973	-262.128634	-263.485084
73.97	0.006775	0.080459	10.572785	22.615190	-300.478847	-268.727903
74.48	0.006647	0.080448	10.573624	21.495222	-255.340287	-250.262882
74.99	0.006594	0.080478	10.574287	23.157257	-278.322288	-235.689619
75.50	0.006513	0.080466	10.574371	22.080598	-251.605720	-233.846436
76.01	0.006498	0.080487	10.573744	23.465915	-297.955358	-247.640032
76.52	0.006441	0.080474	10.573535	22.148356	-272.445595	-252.237834
77.03	0.006444	0.080512	10.574094	23.771673	-296.913083	-239.931787
77.55	0.006396	0.080508	10.573784	22.182604	-267.482600	-246.751577
78.06	0.006405	0.080542	10.573552	23.760230	-309.147797	-251.853811
78.57	0.006372	0.080517	10.573381	22.222882	-277.698618	-255.612242
79.08	0.006380	0.080521	10.572815	23.772554	-326.433083	-268.071716
79.59	0.006355	0.080486	10.572845	22.333078	-292.608561	-267.415156
80.10	0.006374	0.080491	10.573042	23.781129	-321.402119	-263.084348
80.61	0.006362	0.080459	10.572967	22.363904	-290.507900	-264.734438
81.12	0.006394	0.080482	10.572960	24.058619	-329.667853	-264.875800
81.63	0.006382	0.080473	10.573309	22.476473	-285.195409	-257.194981
82.14	0.006417	0.080519	10.573776	23.852283	-306.102814	-246.927833
82.65	0.006405	0.080536	10.573604	22.986105	-290.127906	-250.709326
83.16	0.006438	0.080585	10.573237	24.763441	-339.517354	-258.794401
83.67	0.006426	0.080587	10.573011	23.611740	-318.208583	-263.757560
84.18	0.006457	0.080616	10.573600	25.154077	-340.138706	-250.809302
84.69	0.006441	0.080609	10.574133	24.074771	-302.995325	-239.078070
85.20	0.006461	0.080630	10.574193	25.512851	-334.712604	-237.755163
85.71	0.006445	0.080616	10.573701	24.131125	-314.255727	-248.581959
86.22	0.006467	0.080615	10.573861	25.401142	-339.791096	-245.052525
86.73	0.006416	0.080546	10.573636	23.603148	-303.602445	-250.013362
87.24	0.006405	0.080500	10.572718	24.612740	-348.019826	-270.214130
87.75	0.006320	0.080388	10.572718	22.737438	-304.836286	-270.200088
88.26	0.006265	0.080309	10.573335	23.935619	-318.186063	-256.624175
88.77	0.006188	0.080230	10.573631	22.108607	-269.313138	-250.122596
89.28	0.006241	0.080305	10.573786	23.932989	-307.727659	-246.705587
89.79	0.006281	0.080444	10.573707	23.200847	-292.702019	-248.449350
90.30	0.006294	0.080620	10.573636	25.935295	-357.279223	-250.005316
90.81	0.006295	0.080663	10.572981	24.444840	-338.083025	-264.422205
91.32	0.006349	0.080624	10.572707	26.174553	-384.225916	-270.456124
91.83	0.006369	0.080524	10.573276	24.237302	-326.491138	-257.921882
92.34	0.006370	0.080457	10.573379	25.752057	-358.987991	-255.658951
92.85	0.006385	0.080357	10.573632	23.998110	-312.772468	-250.087905
93.36	0.006386	0.080336	10.573732	25.470398	-344.366737	-247.896487
93.87	0.006388	0.080286	10.573899	23.933204	-305.132773	-244.225593
94.38	0.006394	0.080280	10.574175	25.394271	-332.397131	-238.150261
94.89	0.006398	0.080200	10.574424	23.778068	-289.445270	-232.667762
95.40	0.006410	0.080135	10.575320	24.623430	-288.256032	-212.970424
95.91	0.006413	0.080048	10.575326	23.081993	-252.616339	-212.821271
96.42	0.006413	0.080041	10.574278	24.450333	-308.285828	-235.877905
96.93	0.006413	0.080022	10.575019	22.571910	-247.961381	-219.581593
97.44	0.006417	0.080046	10.575186	23.773414	-271.759135	-215.899072
97.95	0.006417	0.079999	10.573835	22.308230	-269.205292	-245.636303
98.46	0.006450	0.079966	10.570379	22.171589	-345.754854	-321.657757
98.97	0.006450	0.079901	10.564907	15.086531	-308.867189	-442.048144
99.48	0.006455	0.079942	10.559969	1.035472	-99.301415	-550.683445
99.99	0.006458	0.080039	10.551704	-28.575538	391.724742	-732.506484
100.50	0.006460	0.080261	10.539588	-67.008477	997.004936	-999.058970
101.01	0.006460	0.080499	10.530669	-107.645511	1726.739272	-1195.292774
101.52	0.006460	0.080804	10.527043	-138.315933	2349.143225	-1275.057045
102.03	0.006460	0.081060	10.525027	-156.797259	2728.088120	-1319.403055
102.54	0.006460	0.081340	10.524102	-163.312438	2856.727432	-1339.757370
103.06	0.006460	0.081591	10.524133	-160.291906	2787.922316	-1339.064368
103.57	0.006460	0.081891	10.525375	-148.743967	2550.715455	-1311.760973
104.08	0.006460	0.082123	10.526750	-131.331341	2181.595011	-1281.510498
104.59	0.006460	0.082339	10.528596	-109.151260	1713.604479	-1240.886216
105.10	0.006460	0.082434	10.532403	-86.607151	1282.447175	-1157.133004
105.61	0.006460	0.082501	10.536357	-63.868673	850.207232	-1070.144452
106.12	0.006469	0.082482	10.539373	-45.811113	504.088831	-1003.790373
106.63	0.006473	0.082528	10.541425	-29.499522	175.915341	-958.657534
107.14	0.006473	0.082582	10.542085	-18.145960	-70.208474	-944.128324
107.65	0.006473	0.082732	10.542349	-7.300713	-313.771274	-938.318027
108.16	0.006512	0.082851	10.542632	-0.819074	-456.442207	-932.085042
108.67	0.006539	0.082987	10.542736	6.276468	-617.398984	-929.814585
109.18	0.006543	0.083031	10.542643	9.231427	-687.551210	-931.846461
109.69	0.006599	0.083085	10.542317	13.759374	-799.311443	-939.027878
110.20	0.007351	0.083074	10.542561	14.521543	-811.228514	-933.659513
110.71	0.016316	0.083124	10.542450	17.837506	-890.125441	-936.105879
111.22	0.060512	0.083145	10.542580	17.796851	-886.182959	-933.237857
111.73	0.160304	0.083204	10.542519	20.703467	-954.494277	-934.575247
112.24	0.160304	0.083205	10.542553	20.212743	-942.411608	-933.825112
112.75	0.160304	0.083234	10.542515	22.188768	-988.788009	-934.673118
113.26	0.160304	0.083205	10.542292	21.609452	-980.595015	-939.578724
113.77	0.160304	0.083230	10.543028	23.158081	-999.277785	-923.394638
114.28	0.160304	0.083212	10.543139	21.958916	-969.110124	-920.949503
114.79	0.160304	0.083220	10.542776	22.699645	-994.534437	-928.936539
115.30	0.160304	0.083185	10.542698	20.720150	-950.765136	-930.651656
115.81	0.160304	0.083172	10.542877	21.382321	-961.866016	-926.700523
116.32	0.160304	0.083107	10.542989	19.113996	-907.076125	-924.245332
116.83	0.160304	0.083084	10.542558	19.690873	-930.292982	-933.724608
117.34	0.160304	0.083026	10.542526	17.578815	-882.407477	-934.424167
117.85	0.160304	0.083013	10.542491	18.196433	-897.439846	-935.201607
118.36	0.160304	0.082969	10.542506	16.340950	-854.372459	-934.863152
118.87	0.160304	0.082987	10.542927	17.263622	-865.896210	-925.595162
119.38	0.160304	0.082975	10.543218	16.092560	-832.230799	-919.196414
119.89	0.160304	0.083007	10.543413	17.160163	-852.315611	-914.912370
120.40	0.160304	0.082980	10.543602	15.837429	-817.520276	-910.766275
120.91	0.160304	0.082979	10.543022	18.596359	-894.391948	-923.512409
121.42	0.160304	0.082917	10.542286	18.956394	-919.656482	-939.706517
121.93	0.160304	0.082907	10.542317	23.703905	-1028.226370	-939.023334
122.44	0.108470	0.082862	10.542447	26.686548	-1093.900275	-936.175427
122.95	0.069177	0.082878	10.542486	31.319272	-1199.639182	-935.312329
123.46	0.039260	0.082868	10.542471	28.123471	-1126.423751	-935.646974
123.97	0.016982	0.082900	10.542139	25.930978	-1083.593153	-942.934663
124.48	0.001572	0.082895	10.541974	25.185133	-1070.231201	-946.566307
124.99	0.000000	0.082941	10.542012	25.300021	-1072.000260	-945.731046
125.50	0.000000	0.082948	10.542343	22.231107	-993.732356	-938.459855
126.01	0.000000	0.082995	10.542197	21.341657	-976.627372	-941.674370
126.52	0.000000	0.082996	10.542069	21.256302	-977.606417	-944.482563
127.03	0.000000	0.083033	10.542154	20.575864	-959.984898	-942.614748
127.54	0.000000	0.083026	10.541823	20.523862	-966.425944	-949.900778
128.05	0.000000	0.083068	10.542024	20.555260	-962.516272	-945.481883
128.56	0.000000	0.083063	10.542041	20.223877	-954.476858	-945.089735
129.08	0.000000	0.083093	10.542288	20.101828	-945.970088	-939.655105
129.59	-0.003236	0.083073	10.542558	19.345147	-922.338142	-933.728093
130.10	0.001286	0.083087	10.542125	19.247088	-930.065240	-943.252251
130.61	0.004823	0.083060	10.541920	19.127435	-932.047167	-947.770234
131.12	0.007211	0.083071	10.541783	19.175899	-936.311754	-950.774053
131.63	0.008191	0.083044	10.540788	18.873603	-952.308699	-972.671600
132.14	0.007811	0.083050	10.539910	18.898704	-973.132052	-991.983920
132.65	0.006075	0.083008	10.540180	16.849648	-919.728043	-986.035892
133.16	0.003307	0.082990	10.545286	16.772802	-800.195711	-873.700827
133.67	-0.000270	0.082908	10.562858	16.167557	-381.006027	-487.123975
134.18	-0.004301	0.082842	10.577858	15.694106	-24.162506	-157.125433
134.69	-0.008373	0.082686	10.571807	14.962765	-146.885506	-290.250735
135.20	-0.011914	0.082521	10.571305	14.258284	-142.237306	-301.286173
135.71	-0.014734	0.082271	10.588616	13.192091	281.557203	79.561481
136.22	-0.016569	0.082046	10.604219	12.232801	663.483233	422.818028
136.73	-0.017369	0.081777	10.610397	11.083945	832.414254	558.734960
137.24	-0.017054	0.081562	10.604341	10.163703	713.922764	425.498119
137.75	-0.015762	0.081323	10.586800	9.141908	332.902805	39.604096
138.26	-0.013634	0.081161	10.582334	8.452631	245.773591	-58.644437
138.77	-0.010942	0.081010	10.596698	7.806918	591.915053	257.362732
139.28	-0.007894	0.080954	10.608720	7.567022	874.703979	521.848746
139.79	-0.004793	0.080882	10.612006	7.260049	957.541721	594.127396
140.30	-0.001998	0.080853	10.603610	6.629632	778.424784	409.423784
140.81	0.000234	0.080772	10.585551	6.096392	374.190680	12.113646
141.32	0.001834	0.080723	10.583749	5.859341	338.096315	-27.522257
141.83	0.002660	0.080651	10.600258	5.536757	726.264539	335.669902
142.34	0.002795	0.080660	10.611725	3.540002	1036.690635	587.941037
142.85	0.002234	0.080657	10.614100	2.089367	1124.861379	640.193692
143.36	0.001152	0.080714	10.604343	2.121000	899.104329	425.537526
143.87	-0.000348	0.080718	10.585752	-0.734582	536.087806	16.549719
144.38	-0.002049	0.080744	10.586533	-35.152424	1346.380966	33.725933
144.89	-0.003919	0.080729	10.603155	-201.687537	5563.314148	399.407221
145.40	-0.005305	0.080753	10.613154	-301.381397	8088.837802	619.382585
145.91	-0.006752	0.080715	10.615141	-324.308282	8662.429955	663.093480
146.42	-0.007808	0.080653	10.607542	-324.318815	8487.426566	495.925559
146.93	-0.008077	0.080327	10.595014	-324.375070	8199.789768	220.312076
