Length [m]	OTDR [V]	Brillouin intensity [V]	Fitted Frequency [GHz]	Temperature [”]	Compensated Strain [レュ]	Uncompensated Strain [レュ]
0.51	0.007168	0.043062	10.502458	-145.121782	1931.912168	-1815.915013
1.02	0.007158	0.046646	10.474552	-123.589423	792.641312	-2429.851486
1.53	0.007178	0.049661	10.456598	-88.539888	-428.273036	-2824.850282
2.04	0.007177	0.052166	10.446474	-52.017552	-1502.497641	-3047.580357
2.55	0.007163	0.054257	10.441679	-27.775927	-2171.113363	-3153.064909
3.06	0.007114	0.056016	10.439625	-15.505271	-2500.948103	-3198.249895
3.57	0.007113	0.057507	10.438535	-18.725672	-2451.956523	-3222.231968
4.08	0.007093	0.058765	10.437233	-21.830787	-2410.499253	-3250.869558
4.59	0.007093	0.059824	10.436736	-10.743028	-2677.192986	-3261.798752
5.10	0.007112	0.060667	10.437122	10.698234	-3161.866162	-3253.311521
5.61	0.007134	0.061314	10.436595	29.134168	-3598.423750	-3264.919306
6.12	0.007139	0.061750	10.435562	35.865553	-3777.183349	-3287.627417
6.63	0.007130	0.062047	10.435457	27.665577	-3590.855396	-3289.947982
7.14	0.007112	0.062223	10.436011	12.435841	-3227.492457	-3277.757426
7.65	0.007105	0.062368	10.435976	2.304697	-2995.086168	-3278.529295
8.16	0.007099	0.062470	10.436004	7.206774	-3107.279477	-3277.908471
8.67	0.007133	0.062572	10.435498	22.575539	-3472.742634	-3289.049557
9.18	0.007170	0.062624	10.435548	40.948514	-3894.526419	-3287.947018
9.69	0.007187	0.062618	10.435579	52.529712	-4160.405324	-3287.263737
10.20	0.007175	0.062532	10.434915	53.582030	-4199.946573	-3301.874940
10.71	0.007131	0.062433	10.434911	46.039327	-4026.396526	-3301.951628
11.22	0.007084	0.062325	10.435731	40.562825	-3881.432220	-3283.925570
11.73	0.007061	0.062278	10.435277	42.781910	-3942.979186	-3293.907617
12.24	0.007061	0.062285	10.433862	52.093052	-4189.957758	-3325.042368
12.75	0.007095	0.062351	10.433538	59.405607	-4365.749831	-3332.158080
13.26	0.007127	0.062411	10.434713	59.967234	-4351.594677	-3306.322879
13.77	0.007130	0.062443	10.435594	52.029222	-4148.546262	-3286.941359
14.28	0.007102	0.062424	10.436500	42.376067	-3905.436980	-3267.007647
14.79	0.007073	0.062396	10.436572	34.277715	-3717.355648	-3265.424132
15.30	0.007043	0.062362	10.435353	30.075533	-3648.720065	-3292.226187
15.81	0.007030	0.062376	10.434329	28.962993	-3646.733626	-3314.761097
16.32	0.007018	0.062407	10.434625	28.797589	-3636.107929	-3308.257224
16.83	0.006994	0.062455	10.435296	26.665972	-3571.567034	-3293.498605
17.34	0.006917	0.062458	10.435830	25.413817	-3530.426616	-3281.750081
17.85	0.006802	0.062436	10.435593	26.945795	-3571.141935	-3286.948586
18.36	0.006664	0.062381	10.435064	30.366448	-3662.080903	-3298.583095
18.87	0.006548	0.062341	10.436122	34.040720	-3722.279177	-3275.324777
19.38	0.006460	0.062302	10.437333	36.691913	-3755.361117	-3248.665395
19.89	0.006417	0.062296	10.437256	41.166695	-3860.165456	-3250.378993
20.40	0.006396	0.062273	10.437037	37.717578	-3785.817013	-3255.195299
20.91	0.006368	0.062235	10.436840	42.647303	-3903.828199	-3259.517060
21.42	0.006329	0.062142	10.437920	46.759317	-3973.576277	-3235.756160
21.93	0.006286	0.062051	10.438492	46.918790	-3964.061273	-3223.177966
22.44	0.006247	0.061972	10.438344	52.603719	-4098.328887	-3226.423622
22.95	0.006228	0.061945	10.438390	44.066430	-3900.756866	-3225.425296
23.46	0.006232	0.061967	10.438440	43.085186	-3877.000130	-3224.310341
23.97	0.006260	0.062023	10.438553	38.276411	-3763.710404	-3221.836527
24.48	0.006273	0.062065	10.438596	36.571137	-3723.469119	-3220.895527
24.99	0.006288	0.062093	10.438938	35.670965	-3694.859992	-3213.371625
25.50	0.006280	0.062078	10.438893	39.548696	-3785.148732	-3214.349099
26.02	0.006261	0.062050	10.438794	37.332058	-3736.402732	-3216.524240
26.53	0.006249	0.062019	10.438247	35.956597	-3717.355083	-3228.557728
27.04	0.006250	0.062019	10.437340	35.589447	-3729.837361	-3248.526733
27.55	0.006256	0.062024	10.437745	30.107269	-3594.301149	-3239.618845
28.06	0.006284	0.062058	10.438778	34.004530	-3660.177117	-3216.879981
28.57	0.006300	0.062056	10.438925	33.969545	-3655.995140	-3213.658999
29.08	0.006300	0.062057	10.438440	39.301782	-3789.911758	-3224.314450
29.59	0.006290	0.062035	10.438289	42.006358	-3855.651205	-3227.635029
30.10	0.006266	0.062021	10.438449	43.960817	-3896.960405	-3224.122959
30.61	0.006244	0.062000	10.438469	39.320824	-3789.682142	-3223.677273
31.12	0.006242	0.062023	10.438733	45.775029	-3932.166952	-3217.869163
31.63	0.006248	0.062041	10.438727	37.286355	-3736.913822	-3218.015339
32.14	0.006266	0.062083	10.438544	44.435464	-3905.683817	-3222.021690
32.65	0.006264	0.062066	10.438698	40.903504	-3820.847788	-3218.652966
33.16	0.006263	0.062086	10.439819	44.792232	-3884.491928	-3193.972521
33.67	0.006257	0.062023	10.441215	39.835486	-3738.198841	-3163.265855
34.18	0.006242	0.062057	10.441231	44.379686	-3842.432452	-3162.910701
34.69	0.006239	0.062019	10.441058	38.588460	-3713.128292	-3166.733830
35.20	0.006264	0.062094	10.441128	39.581276	-3734.357256	-3165.183431
35.71	0.006280	0.062066	10.441786	38.373888	-3691.397440	-3150.716356
36.22	0.006295	0.062100	10.441483	38.581642	-3703.154857	-3157.369833
36.73	0.006297	0.062005	10.441464	38.743146	-3707.312239	-3157.789185
37.24	0.006283	0.061954	10.442406	41.045322	-3738.592213	-3137.074815
37.75	0.006264	0.061816	10.443030	40.233919	-3705.517832	-3123.342264
38.26	0.006253	0.061758	10.443193	40.959845	-3718.467203	-3119.754421
38.77	0.006253	0.061667	10.442784	40.434055	-3715.788856	-3128.745131
39.28	0.006267	0.061650	10.442647	39.318534	-3693.272726	-3131.762139
39.79	0.006268	0.061615	10.442800	37.910478	-3657.343689	-3128.408134
40.30	0.006272	0.061617	10.442351	37.657343	-3661.864589	-3138.279133
40.81	0.006263	0.061589	10.442045	37.990430	-3676.577370	-3144.999613
41.32	0.006254	0.061595	10.442802	38.979309	-3681.894275	-3128.357055
41.83	0.006243	0.061585	10.443594	39.293471	-3670.850873	-3110.924151
42.34	0.006241	0.061624	10.443738	39.840974	-3680.146290	-3107.768732
42.85	0.006247	0.061647	10.444190	38.183613	-3631.560556	-3097.815824
43.36	0.006262	0.061669	10.444505	36.333956	-3581.730476	-3090.898461
43.87	0.006262	0.061638	10.444350	35.289375	-3561.243882	-3094.293715
44.38	0.006267	0.061603	10.444112	35.665638	-3575.395881	-3099.531166
44.89	0.006257	0.061521	10.444023	37.470077	-3618.990640	-3101.493537
45.40	0.006250	0.061464	10.444575	39.626892	-3655.900055	-3089.341056
45.91	0.006245	0.061403	10.445516	40.472127	-3653.662406	-3068.646396
46.42	0.006248	0.061402	10.445523	40.513366	-3654.450598	-3068.492706
46.93	0.006254	0.061418	10.444561	38.797280	-3637.131542	-3089.654751
47.44	0.006263	0.061470	10.444213	37.419359	-3613.435011	-3097.307685
47.95	0.006261	0.061505	10.444183	37.476874	-3615.450976	-3097.967775
48.46	0.006263	0.061537	10.444990	39.152750	-3635.413955	-3080.210734
48.97	0.006248	0.061536	10.447159	40.670880	-3620.337279	-3032.493059
49.48	0.006240	0.061520	10.454101	42.181022	-3495.011601	-2879.783694
49.99	0.006236	0.061458	10.481311	42.519697	-2875.254385	-2281.157309
50.50	0.006237	0.061339	10.518419	42.442977	-2017.658201	-1464.776609
51.01	0.006240	0.061071	10.546701	42.082949	-1357.102113	-842.574499
51.53	0.006243	0.060623	10.560174	43.462561	-1078.132893	-546.170039
52.04	0.006243	0.059951	10.563158	45.631797	-1059.244295	-480.518802
52.55	0.006243	0.059125	10.565071	48.153416	-1073.184633	-438.445410
53.06	0.006246	0.058171	10.566657	48.702858	-1049.255895	-403.554698
53.57	0.006247	0.057210	10.568113	47.463891	-987.155392	-371.522662
54.08	0.006249	0.056274	10.568623	43.687183	-888.438410	-360.287138
54.59	0.006251	0.055439	10.569337	39.278457	-770.496672	-344.591219
55.10	0.006255	0.054697	10.569900	35.846306	-678.510040	-332.209830
55.61	0.006252	0.054085	10.569449	33.940419	-645.036715	-342.130017
56.12	0.006248	0.053570	10.569432	32.934260	-622.256923	-342.494051
56.63	0.006238	0.053172	10.569742	32.451299	-603.986958	-335.671371
57.14	0.006229	0.052841	10.569372	31.272153	-585.372276	-343.807100
57.65	0.006224	0.052607	10.569189	29.406625	-546.659574	-347.843176
58.16	0.006220	0.052430	10.569868	26.504263	-464.189191	-332.905971
58.67	0.006218	0.052322	10.569989	25.020456	-427.228741	-330.231493
59.18	0.006217	0.052228	10.569931	23.510701	-393.831977	-331.526211
59.69	0.006225	0.052176	10.570043	23.597495	-393.231826	-329.047861
60.20	0.006226	0.052110	10.569813	24.232436	-413.154229	-334.109526
60.71	0.006221	0.052069	10.569638	24.651454	-426.848854	-337.971872
61.22	0.006218	0.052002	10.569957	24.124119	-407.343196	-330.944858
61.73	0.006222	0.051961	10.569981	23.466554	-391.664366	-330.427924
62.24	0.006215	0.051917	10.569882	21.582820	-350.584944	-332.606142
62.75	0.006225	0.051916	10.569879	20.677023	-329.789649	-332.659424
63.26	0.006223	0.051912	10.569513	20.639896	-337.384953	-340.719869
63.77	0.006224	0.051923	10.569931	21.249633	-341.766214	-331.510226
64.28	0.006246	0.051916	10.570248	22.625802	-366.136554	-324.538521
64.79	0.006348	0.051929	10.571033	23.976304	-379.127342	-307.275411
65.30	0.006632	0.051916	10.570719	23.997320	-386.842663	-314.173609
65.81	0.007253	0.051928	10.570546	23.698909	-383.969749	-317.985794
66.32	0.008308	0.051919	10.570259	22.635662	-366.117532	-324.303868
66.83	0.009753	0.051930	10.570166	22.839279	-372.957752	-326.357654
67.34	0.011247	0.051930	10.570038	22.848723	-376.109678	-329.156897
67.85	0.012365	0.051943	10.570313	23.279149	-379.689241	-323.119922
68.36	0.012834	0.051950	10.570482	24.203890	-397.065191	-319.388961
68.87	0.012620	0.051976	10.570395	24.559534	-407.277298	-321.320907
69.38	0.011888	0.051980	10.570960	23.170187	-362.248935	-308.876183
69.89	0.010916	0.051998	10.571158	22.379558	-339.482074	-304.519847
70.40	0.009919	0.051983	10.571079	21.375068	-318.179173	-306.256056
70.91	0.009062	0.051974	10.571190	21.239345	-312.493082	-303.812345
71.42	0.008382	0.051923	10.571101	21.696852	-325.092199	-305.784519
71.93	0.007886	0.051881	10.571606	22.473564	-331.319249	-294.669052
72.44	0.007516	0.051813	10.571589	22.643423	-335.631687	-295.052830
72.95	0.007267	0.051782	10.571657	22.412973	-328.743015	-293.542050
73.46	0.007074	0.051752	10.571493	21.428763	-309.884124	-297.164308
73.97	0.006932	0.051771	10.571386	21.471137	-313.326610	-299.517646
74.48	0.006828	0.051793	10.571423	21.390349	-310.606779	-298.697170
74.99	0.006754	0.051853	10.571576	22.318224	-328.427690	-295.321821
75.50	0.006692	0.051898	10.571684	23.167403	-345.501653	-292.961992
76.01	0.006652	0.051956	10.571611	24.237735	-371.811407	-294.556056
76.52	0.006617	0.051978	10.571439	24.471221	-381.143615	-298.331067
77.03	0.006595	0.051993	10.571439	24.207994	-375.095381	-298.341712
77.55	0.006574	0.051960	10.571573	23.131257	-347.210476	-295.385771
78.06	0.006563	0.051922	10.571221	22.893600	-349.860373	-303.132137
78.57	0.006546	0.051862	10.570985	22.183094	-338.955842	-308.331930
79.08	0.006539	0.051832	10.571054	22.556698	-345.966284	-306.815411
79.59	0.006529	0.051793	10.571421	22.640948	-339.431233	-298.731594
80.10	0.006524	0.051793	10.571936	22.964773	-335.016428	-287.409545
80.61	0.006522	0.051782	10.571966	22.726149	-328.826175	-286.744478
81.12	0.006531	0.051815	10.572193	22.567638	-319.938309	-281.746975
81.63	0.006538	0.051834	10.572260	22.192651	-309.759347	-280.271399
82.14	0.006555	0.051874	10.571910	22.576180	-326.679044	-287.989425
82.65	0.006562	0.051910	10.571671	22.723611	-335.586398	-293.248828
83.16	0.006570	0.051951	10.572109	23.899869	-352.557369	-283.608588
83.67	0.006571	0.051957	10.572216	24.408807	-361.791653	-281.241660
84.18	0.006569	0.051977	10.571713	24.787486	-382.125878	-292.323331
84.69	0.006564	0.051974	10.571765	24.678514	-378.401633	-291.163633
85.20	0.006562	0.051984	10.571687	24.601150	-378.418150	-292.878189
85.71	0.006566	0.051972	10.571788	24.345616	-370.205378	-290.655147
86.22	0.006576	0.051973	10.571645	24.296939	-372.393359	-293.811136
86.73	0.006547	0.051918	10.571319	23.949978	-371.924774	-300.982932
87.24	0.006522	0.051873	10.572175	23.481415	-341.406772	-282.160628
87.75	0.006445	0.051772	10.572748	22.704277	-310.279535	-269.533016
88.26	0.006365	0.051675	10.572450	21.906640	-298.802891	-276.100365
88.77	0.006301	0.051584	10.572430	21.124939	-281.274016	-276.544526
89.28	0.006336	0.051595	10.572508	20.989244	-276.349299	-274.826464
89.79	0.006371	0.051700	10.572249	21.919699	-303.727439	-280.511155
90.30	0.006376	0.051812	10.572293	22.914640	-325.617368	-279.544593
90.81	0.006399	0.051835	10.572460	23.651889	-338.739398	-275.872841
91.32	0.006438	0.051745	10.572789	23.535654	-328.486709	-268.645085
91.83	0.006462	0.051638	10.572436	23.106800	-326.763957	-276.418768
92.34	0.006468	0.051550	10.572123	22.730283	-325.310983	-283.300557
92.85	0.006468	0.051477	10.572203	22.305127	-313.680248	-281.541741
93.36	0.006471	0.051443	10.572299	22.154602	-308.002738	-279.431259
93.87	0.006474	0.051430	10.571949	21.588728	-303.038380	-287.121519
94.38	0.006474	0.051467	10.571920	21.757599	-307.598208	-287.762988
94.89	0.006475	0.051483	10.572420	22.201901	-306.301637	-276.769941
95.40	0.006481	0.051504	10.572043	22.492224	-321.658790	-285.044135
95.91	0.006487	0.051504	10.572189	22.281987	-313.452961	-281.833052
96.42	0.006487	0.051538	10.572124	22.886459	-328.868754	-283.264911
96.93	0.006487	0.051585	10.572160	22.655651	-322.735970	-282.483039
97.44	0.006487	0.051669	10.572639	23.363575	-327.973414	-271.934058
97.95	0.006487	0.051728	10.572512	23.728378	-339.308606	-274.736218
98.46	0.006492	0.051768	10.569906	22.703301	-375.809605	-332.063916
98.97	0.006492	0.051769	10.565278	16.915834	-349.332594	-433.891864
99.48	0.006492	0.051805	10.560322	1.961702	-119.389707	-542.919512
99.99	0.006492	0.051847	10.554628	-26.973679	415.378600	-668.180861
100.50	0.006492	0.051937	10.547038	-66.031270	1139.423080	-835.159939
101.01	0.006487	0.052022	10.538751	-106.030192	1869.056198	-1017.478268
101.52	0.006483	0.052115	10.532025	-136.558648	2416.678459	-1165.459807
102.03	0.006482	0.052179	10.528312	-154.580663	2745.908963	-1247.142823
102.54	0.006481	0.052262	10.527334	-161.021954	2871.628614	-1268.659738
103.06	0.006478	0.052362	10.527401	-157.670664	2796.034238	-1267.180062
103.57	0.006478	0.052521	10.526672	-145.955747	2509.559098	-1283.207345
104.08	0.006474	0.052680	10.526334	-128.170671	2092.349895	-1290.650514
104.59	0.006474	0.052846	10.526848	-106.298555	1600.711850	-1279.346192
105.10	0.006474	0.052975	10.529638	-83.724739	1145.423164	-1217.959679
105.61	0.006474	0.053080	10.532999	-62.511394	734.619165	-1144.013022
106.12	0.006474	0.053144	10.535159	-44.797955	376.667576	-1096.503087
106.63	0.006475	0.053225	10.536485	-29.854367	63.262549	-1067.321937
107.14	0.006475	0.053315	10.537392	-18.768367	-171.029975	-1047.382068
107.65	0.006474	0.053449	10.538382	-9.217620	-368.042287	-1025.592373
108.16	0.006471	0.053572	10.538997	-1.690655	-527.130938	-1012.066484
108.67	0.006471	0.053693	10.539592	4.216020	-649.381083	-998.979374
109.18	0.006471	0.053748	10.540383	8.348662	-726.272069	-981.579185
109.69	0.006471	0.053764	10.540012	11.633337	-810.429281	-989.730414
110.20	0.006471	0.053735	10.540022	13.555014	-854.431697	-989.507270
110.71	0.006471	0.053722	10.539948	15.320543	-896.789498	-991.144086
111.22	0.006471	0.053708	10.539903	16.410686	-922.920318	-992.132426
111.73	0.006468	0.053740	10.540241	17.788781	-946.851074	-984.699112
112.24	0.006467	0.053760	10.540256	18.497015	-962.799489	-984.360570
112.75	0.006464	0.053786	10.540076	19.596422	-992.261831	-988.323446
113.26	0.006463	0.053766	10.539436	19.834537	-1012.499717	-1002.399823
113.77	0.006463	0.053747	10.539086	20.284818	-1030.949246	-1010.111375
114.28	0.006462	0.053695	10.539445	20.190064	-1020.478209	-1002.203669
114.79	0.006462	0.053673	10.539634	20.179948	-1015.885172	-998.044491
115.30	0.006462	0.053657	10.539851	19.538644	-996.124285	-993.276601
115.81	0.006460	0.053683	10.540465	19.341935	-977.440332	-979.773314
116.32	0.006459	0.053704	10.540265	18.586150	-964.647657	-984.166284
116.83	0.006459	0.053738	10.540137	18.433359	-964.076238	-986.976268
117.34	0.006457	0.053741	10.540212	17.976980	-951.860141	-985.344695
117.85	0.006457	0.053738	10.540598	17.905482	-941.312773	-976.853503
118.36	0.006456	0.053699	10.540473	17.752538	-940.675472	-979.604018
118.87	0.006456	0.053676	10.539808	17.894808	-959.268280	-994.215737
119.38	0.006454	0.053639	10.539695	17.739489	-958.310196	-996.712407
119.89	0.006452	0.053640	10.539557	17.559224	-957.350780	-999.755576
120.40	0.006451	0.053638	10.539982	17.011377	-934.923463	-990.391971
120.91	0.006451	0.053653	10.540234	18.682812	-967.585190	-984.845841
121.42	0.006451	0.053634	10.540046	19.886490	-999.629831	-988.982339
121.93	0.006451	0.053614	10.540328	24.074134	-1089.540232	-982.793669
122.44	0.006451	0.053555	10.539943	28.223754	-1193.942570	-991.263877
122.95	0.006450	0.053513	10.539570	31.648012	-1281.362187	-999.462079
123.46	0.006446	0.053470	10.540173	29.283100	-1213.024874	-986.204861
123.97	0.006445	0.053473	10.540497	27.278880	-1159.398006	-979.059713
124.48	0.006444	0.053490	10.540020	27.124248	-1166.838362	-989.552600
124.99	0.006440	0.053525	10.540461	26.028449	-1131.454697	-979.862137
125.50	0.006439	0.053539	10.542109	23.956725	-1045.743463	-943.593834
126.01	0.006439	0.053555	10.546564	22.688671	-913.827136	-845.602837
126.52	0.006438	0.053546	10.558450	22.289484	-630.488315	-584.090074
127.03	0.006437	0.053552	10.576459	22.330512	-216.097911	-187.900035
127.54	0.006435	0.053542	10.578570	22.088352	-161.850777	-141.470911
128.05	0.006433	0.053526	10.580091	21.861605	-121.551579	-108.008338
128.56	0.006432	0.053472	10.590606	21.488083	129.556534	123.322958
129.08	0.006429	0.053399	10.599226	20.934855	341.106223	312.973193
129.59	0.006440	0.053287	10.597094	19.820794	317.576842	266.065208
130.10	0.006426	0.053173	10.594826	18.730002	290.387880	216.177287
130.61	0.006416	0.053034	10.600848	17.797517	450.742294	348.664132
131.12	0.006419	0.052929	10.604499	17.092370	551.171118	428.979691
131.63	0.006426	0.052816	10.599226	16.333156	447.030780	312.968436
132.14	0.006438	0.052726	10.596317	15.731228	393.804867	248.978478
132.65	0.006439	0.052628	10.602536	14.820588	558.183841	385.784083
133.16	0.006438	0.052556	10.604431	14.339542	612.971808	427.483509
133.67	0.006430	0.052494	10.598785	13.921376	492.374512	303.262815
134.18	0.006429	0.052459	10.598118	13.686443	482.405423	288.594457
134.69	0.006423	0.052440	10.604016	13.556431	621.434321	418.359963
135.20	0.006432	0.052460	10.604255	13.940971	618.089314	423.613084
135.71	0.006441	0.052478	10.598324	14.289901	473.270705	293.131881
136.22	0.006471	0.052507	10.597295	14.549321	443.566918	270.493786
136.73	0.006737	0.052513	10.602436	14.615974	560.596225	383.592231
137.24	0.008829	0.052534	10.600925	14.917344	518.808149	350.348020
137.75	0.018525	0.052517	10.595877	14.803466	405.018293	239.302716
138.26	0.048594	0.052501	10.596927	14.953914	425.753304	262.385556
138.77	0.118981	0.052444	10.602513	14.570317	563.415117	385.278625
139.28	0.251430	0.052399	10.601315	14.269432	542.728939	358.938960
139.79	0.448843	0.052324	10.595496	13.763782	420.160822	230.917279
140.30	0.676179	0.052276	10.596319	13.437745	446.636644	249.013383
140.81	0.870291	0.052229	10.600854	13.056499	560.003481	348.782971
141.32	0.976010	0.052238	10.599080	13.110942	517.850515	309.768527
141.83	0.975467	0.052241	10.594131	13.204531	401.543920	200.878156
142.34	0.887039	0.052271	10.598246	13.522042	489.137819	291.406523
142.85	0.746627	0.052268	10.603651	13.514115	613.971182	410.311624
143.36	0.590882	0.052292	10.599533	13.674525	515.318130	319.728344
143.87	0.446980	0.052297	10.594653	13.712740	401.882211	212.360407
144.38	0.328572	0.052334	10.599641	13.960444	511.229801	322.106850
144.89	0.237645	0.052364	10.603752	14.158275	601.481302	412.542293
145.40	0.170296	0.052402	10.598328	14.417796	470.423974	293.224768
145.91	0.121230	0.052395	10.594745	14.541313	384.936219	214.389803
146.42	0.085636	0.052374	10.600858	14.483098	527.262709	348.877454
146.93	0.059721	0.052301	10.604713	14.128432	624.337052	433.689203
