Length [m]	OTDR [V]	Brillouin intensity [V]	Fitted Frequency [GHz]	Temperature [”]	Compensated Strain [レュ]	Uncompensated Strain [レュ]
0.51	0.007174	0.066383	10.468238	-120.514397	580.823320	-2568.774295
1.02	0.007202	0.070132	10.448664	-103.920619	-252.586327	-2999.392377
1.53	0.007158	0.073219	10.440868	-80.093399	-980.885027	-3170.908573
2.04	0.007184	0.075901	10.438123	-56.992930	-1575.952648	-3231.293351
2.55	0.007182	0.078246	10.437917	-40.007333	-1971.714409	-3235.833107
3.06	0.007175	0.080308	10.437596	-23.285752	-2364.041948	-3242.894354
3.57	0.007158	0.082037	10.437806	-14.173175	-2568.957770	-3238.265461
4.08	0.007150	0.083469	10.438549	-4.274992	-2779.682430	-3221.926849
4.59	0.007118	0.084604	10.439533	8.778464	-3057.477181	-3200.281456
5.10	0.007129	0.085531	10.440117	23.162095	-3375.106707	-3187.425938
5.61	0.007129	0.086231	10.438965	29.452562	-3546.473481	-3212.763925
6.12	0.007161	0.086765	10.437185	31.991755	-3645.982378	-3251.928918
6.63	0.007162	0.087125	10.436675	27.430813	-3552.756713	-3263.152243
7.14	0.007174	0.087357	10.436675	23.378601	-3459.476696	-3263.152740
7.65	0.007157	0.087454	10.437119	21.003243	-3394.561419	-3253.389189
8.16	0.007156	0.087484	10.437640	26.114214	-3500.180086	-3241.909752
8.67	0.007146	0.087456	10.437488	31.421295	-3625.874808	-3245.274702
9.18	0.007168	0.087429	10.437260	37.833856	-3778.734965	-3250.278117
9.69	0.007160	0.087361	10.436674	38.671524	-3811.524955	-3263.162669
10.20	0.007171	0.087298	10.435927	38.590561	-3826.902962	-3279.609646
10.71	0.007149	0.087213	10.434965	35.186131	-3770.713609	-3300.766747
11.22	0.007144	0.087151	10.434528	36.450468	-3809.901593	-3310.385333
11.73	0.007120	0.087089	10.434656	38.542824	-3855.107531	-3307.562364
12.24	0.007122	0.087085	10.435161	43.713165	-3962.493342	-3296.464941
12.75	0.007112	0.087095	10.434364	44.827756	-4006.518785	-3313.986225
13.26	0.007136	0.087164	10.434117	45.246034	-4021.861067	-3319.436507
13.77	0.007127	0.087221	10.436085	40.747302	-3872.891849	-3276.119731
14.28	0.007140	0.087287	10.437384	38.330407	-3787.315459	-3247.559528
14.79	0.007124	0.087313	10.437533	35.723843	-3723.865351	-3244.270577
15.30	0.007120	0.087321	10.436310	35.892389	-3755.956068	-3271.181033
15.81	0.007082	0.087268	10.435512	35.153734	-3757.360578	-3288.740621
16.32	0.007058	0.087209	10.435039	36.012901	-3788.053823	-3299.152992
16.83	0.006984	0.087116	10.435630	33.839394	-3724.369486	-3286.131268
17.34	0.006914	0.087052	10.436603	33.091043	-3684.712294	-3264.734799
17.85	0.006802	0.086972	10.436368	32.179066	-3669.134727	-3269.900989
18.36	0.006707	0.086928	10.435804	33.142811	-3704.333328	-3282.314640
18.87	0.006595	0.086863	10.436167	33.898130	-3713.340833	-3274.321215
19.38	0.006523	0.086815	10.436950	35.698224	-3736.735501	-3257.110024
19.89	0.006446	0.086763	10.437420	36.731137	-3749.661927	-3246.759327
20.40	0.006413	0.086740	10.438415	38.160037	-3759.617516	-3224.879401
20.91	0.006369	0.086699	10.438856	37.790318	-3740.931659	-3215.173376
21.42	0.006349	0.086684	10.438625	39.935490	-3795.624579	-3220.240331
21.93	0.006317	0.086649	10.438947	38.346548	-3751.620596	-3213.155587
22.44	0.006312	0.086654	10.439097	39.007642	-3763.384775	-3209.860816
22.95	0.006288	0.086657	10.439099	37.619615	-3731.380679	-3209.811039
23.46	0.006294	0.086697	10.439392	37.969476	-3732.680332	-3203.368352
23.97	0.006280	0.086737	10.439338	37.861323	-3731.450012	-3204.569612
24.48	0.006294	0.086791	10.439280	38.697758	-3752.041911	-3205.845423
24.99	0.006287	0.086815	10.439651	37.589873	-3717.973635	-3197.675089
25.50	0.006304	0.086851	10.439061	39.204763	-3768.762731	-3210.662394
26.02	0.006285	0.086852	10.438484	37.279208	-3737.747412	-3223.359161
26.53	0.006296	0.086862	10.438313	37.662593	-3750.500214	-3227.105536
27.04	0.006276	0.086836	10.438328	37.660347	-3750.117724	-3226.789993
27.55	0.006289	0.086818	10.439248	38.705174	-3752.953884	-3206.552515
28.06	0.006276	0.086776	10.439911	38.134508	-3724.526090	-3191.966099
28.57	0.006292	0.086751	10.440158	39.676657	-3754.332018	-3186.534738
29.08	0.006281	0.086705	10.439679	37.781027	-3721.742345	-3197.072620
29.59	0.006300	0.086684	10.438524	38.473347	-3764.296887	-3222.463255
30.10	0.006281	0.086639	10.438564	37.178632	-3733.580739	-3221.593042
30.61	0.006290	0.086615	10.438879	36.858319	-3718.942354	-3214.663029
31.12	0.006273	0.086570	10.439243	37.482285	-3724.918295	-3206.662109
31.63	0.006286	0.086545	10.439744	39.286220	-3754.869802	-3195.621167
32.14	0.006275	0.086506	10.440320	36.143122	-3669.232823	-3182.949569
32.65	0.006295	0.086467	10.440874	39.091508	-3724.342506	-3170.776630
33.16	0.006285	0.086409	10.441834	34.528602	-3597.155112	-3149.646817
33.67	0.006293	0.086360	10.443556	36.537042	-3603.668409	-3111.757409
34.18	0.006283	0.086286	10.443728	34.735042	-3558.240237	-3107.992599
34.69	0.006295	0.086278	10.443290	37.993765	-3643.349376	-3117.621743
35.20	0.006279	0.086225	10.443536	36.310530	-3598.925510	-3112.207019
35.71	0.006291	0.086263	10.442997	38.777909	-3668.156124	-3124.066329
36.22	0.006283	0.086250	10.442875	37.340477	-3637.872473	-3126.742562
36.73	0.006297	0.086307	10.443416	37.676002	-3633.116299	-3114.837974
37.24	0.006287	0.086281	10.443532	37.952370	-3636.803508	-3112.286569
37.75	0.006299	0.086294	10.444288	38.872135	-3640.559948	-3095.673148
38.26	0.006282	0.086238	10.444696	39.044993	-3635.131171	-3086.698883
38.77	0.006297	0.086198	10.443893	40.614970	-3689.785375	-3104.359367
39.28	0.006287	0.086115	10.443821	39.630758	-3668.787683	-3105.941444
39.79	0.006298	0.086049	10.443623	39.357511	-3667.050895	-3110.284822
40.30	0.006287	0.085961	10.443143	37.272169	-3630.122504	-3120.849771
40.81	0.006298	0.085901	10.443703	36.945807	-3609.688189	-3108.523807
41.32	0.006288	0.085846	10.444541	36.090443	-3570.690055	-3090.105875
41.83	0.006302	0.085819	10.445150	36.869145	-3574.559712	-3076.697968
42.34	0.006286	0.085793	10.445959	36.792733	-3554.133602	-3058.891301
42.85	0.006303	0.085784	10.446516	37.314713	-3553.307802	-3046.641627
43.36	0.006285	0.085775	10.445649	36.090846	-3545.130905	-3065.716020
43.87	0.006300	0.085772	10.444114	36.519276	-3590.401057	-3099.491737
44.38	0.006286	0.085772	10.443639	35.916067	-3587.479631	-3109.950582
44.89	0.006293	0.085792	10.444333	37.160813	-3600.106960	-3094.663014
45.40	0.006282	0.085809	10.445640	37.496575	-3577.701056	-3065.917044
45.91	0.006293	0.085844	10.446561	38.943959	-3589.772613	-3045.649679
46.42	0.006275	0.085859	10.446636	38.881291	-3586.618047	-3044.016637
46.93	0.006284	0.085874	10.446143	39.488474	-3611.965731	-3054.863041
47.44	0.006266	0.085862	10.446143	38.182850	-3581.908390	-3054.860826
47.95	0.006280	0.085843	10.446644	38.538079	-3578.521258	-3043.829512
48.46	0.006266	0.085795	10.446461	37.641945	-3562.122086	-3047.864080
48.97	0.006269	0.085740	10.448976	38.265755	-3518.476155	-2992.532035
49.48	0.006256	0.085658	10.465057	38.098249	-3143.740632	-2638.748098
49.99	0.006267	0.085524	10.514008	39.520464	-2047.507760	-1561.816177
50.50	0.006258	0.085258	10.551867	39.654732	-1177.460683	-728.925515
51.01	0.006274	0.084769	10.561224	41.455734	-1003.119633	-523.073282
51.53	0.006262	0.083942	10.565370	41.544056	-909.537468	-431.865347
52.04	0.006275	0.082787	10.567442	42.523220	-884.292107	-386.282632
52.55	0.006270	0.081381	10.568190	41.329300	-839.542961	-369.812962
53.06	0.006286	0.079889	10.569000	40.681147	-805.957193	-352.007843
53.57	0.006270	0.078443	10.569182	37.963534	-739.196653	-347.999510
54.08	0.006282	0.077177	10.569507	36.289776	-693.156740	-340.835145
54.59	0.006268	0.076128	10.569983	33.136563	-609.594033	-330.364285
55.10	0.006276	0.075311	10.569903	31.672269	-577.743349	-332.135562
55.61	0.006264	0.074673	10.570124	29.665422	-526.451559	-327.275558
56.12	0.006276	0.074181	10.570074	29.125629	-515.184325	-328.380752
56.63	0.006265	0.073764	10.570277	27.350438	-469.636323	-323.912936
57.14	0.006275	0.073419	10.570467	27.044783	-458.202433	-319.717855
57.65	0.006258	0.073114	10.570563	25.137497	-412.102797	-317.624433
58.16	0.006266	0.072885	10.570674	24.847391	-402.858684	-315.176741
58.67	0.006253	0.072715	10.570700	23.190419	-364.104584	-314.593740
59.18	0.006267	0.072619	10.570972	23.095091	-355.646428	-308.618741
59.69	0.006252	0.072558	10.571164	21.823331	-321.932264	-304.384659
60.20	0.006266	0.072552	10.571016	22.886802	-349.844748	-307.658210
60.71	0.006252	0.072552	10.571361	22.274369	-327.776625	-300.055474
61.22	0.006258	0.072569	10.571517	23.495687	-352.305222	-296.635029
61.73	0.006243	0.072573	10.571754	22.728844	-329.173625	-291.408462
62.24	0.006253	0.072590	10.571503	23.603882	-355.099401	-296.924610
62.75	0.006232	0.072585	10.571176	22.668959	-341.134382	-304.132877
63.26	0.006247	0.072600	10.571654	23.338628	-345.514740	-293.606342
63.77	0.006244	0.072594	10.571551	22.252015	-322.891015	-295.885928
64.28	0.006284	0.072591	10.572210	23.327819	-332.443221	-281.374713
64.79	0.006372	0.072567	10.572398	22.659425	-312.715365	-277.233184
65.30	0.006660	0.072533	10.571951	23.497697	-342.321187	-287.067074
65.81	0.007242	0.072489	10.571758	22.530274	-324.514326	-291.324237
66.32	0.008269	0.072454	10.571954	22.957983	-329.834429	-287.007231
66.83	0.009631	0.072408	10.571973	21.595878	-298.055896	-286.603408
67.34	0.011078	0.072391	10.571860	22.103294	-312.330472	-289.077857
67.85	0.012148	0.072374	10.571959	21.523757	-296.708894	-286.902160
68.36	0.012614	0.072376	10.571996	22.102495	-309.183046	-286.093073
68.87	0.012412	0.072369	10.572144	21.418407	-290.013117	-282.828372
69.38	0.011730	0.072375	10.572983	22.349960	-292.116318	-264.379041
69.89	0.010788	0.072380	10.572954	21.658863	-276.882365	-265.022813
70.40	0.009839	0.072378	10.572643	22.135368	-295.004109	-271.845870
70.91	0.008996	0.072366	10.572202	21.270758	-285.285493	-281.560823
71.42	0.008351	0.072366	10.572169	21.840900	-299.161821	-282.278023
71.93	0.007856	0.072347	10.572352	21.077569	-277.384454	-278.266133
72.44	0.007522	0.072339	10.572469	21.971275	-295.254628	-275.688091
72.95	0.007265	0.072320	10.572463	21.040694	-273.957826	-275.807170
73.46	0.007096	0.072316	10.572422	21.608082	-287.967185	-276.711742
73.97	0.006951	0.072321	10.572420	20.968457	-273.282299	-276.749014
74.48	0.006852	0.072345	10.572509	21.727671	-288.713125	-274.797312
74.99	0.006769	0.072390	10.573271	21.312514	-261.583483	-258.034447
75.50	0.006720	0.072446	10.573464	22.158627	-276.607473	-253.786488
76.01	0.006668	0.072486	10.573114	21.557198	-270.845588	-261.496715
76.52	0.006642	0.072509	10.572951	22.579980	-298.145815	-265.079708
77.03	0.006609	0.072499	10.572756	21.592596	-279.906234	-269.362410
77.55	0.006598	0.072476	10.573118	22.492635	-292.288025	-261.409906
78.06	0.006576	0.072436	10.573683	21.424165	-254.648149	-248.967105
78.57	0.006575	0.072394	10.573856	22.027479	-264.543901	-245.158809
79.08	0.006554	0.072354	10.573389	21.457177	-262.194541	-255.440755
79.59	0.006564	0.072328	10.573327	21.946968	-274.892033	-256.797854
80.10	0.006546	0.072311	10.573381	21.213796	-256.786154	-255.625961
80.61	0.006564	0.072313	10.573506	22.256116	-277.884203	-252.863652
81.12	0.006562	0.072321	10.573736	21.762032	-261.209261	-247.806716
81.63	0.006574	0.072337	10.574048	22.889085	-279.968349	-240.952634
82.14	0.006578	0.072363	10.574183	22.237585	-261.847124	-237.972711
82.65	0.006596	0.072397	10.574160	23.194278	-284.392558	-238.471291
83.16	0.006588	0.072436	10.574529	23.220186	-276.496494	-230.370309
83.67	0.006604	0.072479	10.574528	24.160160	-298.158996	-230.393786
84.18	0.006594	0.072498	10.574190	23.667327	-294.594085	-237.815118
84.69	0.006606	0.072510	10.573653	24.244893	-320.290834	-249.644858
85.20	0.006592	0.072503	10.573937	23.293001	-291.810968	-243.379947
85.71	0.006601	0.072525	10.574804	24.065966	-289.613186	-224.310272
86.22	0.006599	0.072553	10.574854	23.454264	-274.375116	-223.206687
86.73	0.006574	0.072571	10.574438	23.851170	-293.102146	-232.355016
87.24	0.006536	0.072579	10.574175	22.969479	-278.871268	-238.140778
87.75	0.006476	0.072552	10.574101	23.749406	-298.541112	-239.777857
88.26	0.006399	0.072486	10.573784	22.712903	-281.989459	-246.749272
88.77	0.006350	0.072412	10.573881	23.175010	-290.386829	-244.612365
89.28	0.006377	0.072399	10.574328	22.615036	-267.190496	-234.781489
89.79	0.006405	0.072465	10.574598	23.657576	-284.971431	-228.850124
90.30	0.006438	0.072541	10.574868	23.321046	-270.997500	-222.910048
90.81	0.006448	0.072551	10.575031	24.046719	-283.931278	-219.312907
91.32	0.006473	0.072479	10.575048	23.087288	-261.453140	-218.938622
91.83	0.006495	0.072411	10.575122	23.753431	-275.082459	-217.312147
92.34	0.006495	0.072352	10.574392	22.944928	-273.312025	-233.376896
92.85	0.006495	0.072286	10.573811	23.380953	-296.754219	-246.164041
93.36	0.006499	0.072233	10.574127	22.308280	-264.767691	-239.206291
93.87	0.006500	0.072199	10.574368	23.015599	-275.495926	-233.908287
94.38	0.006516	0.072180	10.574238	22.119787	-257.871841	-236.767330
94.89	0.006524	0.072156	10.574557	22.826612	-266.770698	-229.735134
95.40	0.006533	0.072126	10.574960	22.321529	-245.864438	-220.883445
95.91	0.006534	0.072126	10.574130	23.189903	-285.003145	-239.149813
96.42	0.006534	0.072169	10.574438	22.828147	-269.567243	-232.369067
96.93	0.006534	0.072242	10.574481	24.366393	-303.968615	-231.407040
97.44	0.006534	0.072285	10.574399	23.723915	-291.078188	-233.218685
97.95	0.006535	0.072284	10.573488	23.932342	-316.884072	-253.258297
98.46	0.006535	0.072235	10.569822	21.382797	-342.757513	-333.923448
98.97	0.006535	0.072185	10.563971	16.134161	-356.879240	-462.646779
99.48	0.006535	0.072176	10.558233	0.763996	-135.388988	-588.872926
99.99	0.006535	0.072264	10.550393	-26.111543	302.460837	-761.354119
100.50	0.006535	0.072428	10.537886	-64.260452	892.175648	-1036.517603
101.01	0.006534	0.072656	10.528090	-102.258831	1540.961482	-1252.027523
101.52	0.006533	0.072903	10.524678	-132.397247	2156.046839	-1327.090940
102.03	0.006533	0.073150	10.523941	-149.894501	2541.833871	-1343.301391
102.54	0.006533	0.073363	10.524482	-156.331532	2702.483367	-1331.405005
103.06	0.006533	0.073568	10.525659	-152.850643	2649.505804	-1305.505229
103.57	0.006527	0.073738	10.526968	-141.611080	2420.964538	-1276.707189
104.08	0.006527	0.073900	10.527437	-123.970592	2025.708645	-1266.383925
104.59	0.006527	0.074019	10.528462	-102.911490	1564.575065	-1243.833853
105.10	0.006527	0.074104	10.531641	-80.559616	1123.350709	-1173.904852
105.61	0.006527	0.074137	10.535936	-60.544227	761.672691	-1079.402062
106.12	0.006527	0.074154	10.538416	-42.962805	414.144766	-1024.847848
106.63	0.006528	0.074181	10.539455	-29.749950	133.949630	-1001.992034
107.14	0.006528	0.074253	10.540109	-18.508398	-109.742922	-987.603200
107.65	0.006527	0.074352	10.539840	-10.460901	-301.206305	-993.529576
108.16	0.006524	0.074472	10.539836	-3.071509	-471.388880	-993.607137
108.67	0.006524	0.074568	10.540198	2.175837	-583.839069	-985.649731
109.18	0.006524	0.074661	10.540505	6.795955	-683.115585	-978.898931
109.69	0.006524	0.074717	10.540651	9.589051	-744.036554	-975.679358
110.20	0.006524	0.074785	10.541227	12.604780	-800.173308	-963.007411
110.71	0.006524	0.074863	10.541026	14.377651	-845.617594	-967.427228
111.22	0.006524	0.074962	10.540389	16.585163	-911.119668	-981.436185
111.73	0.006519	0.075051	10.540741	17.570887	-925.704976	-973.704096
112.24	0.006518	0.075117	10.540603	19.090056	-963.846109	-976.728333
112.75	0.006516	0.075140	10.540637	19.268269	-967.164041	-975.980022
113.26	0.006518	0.075145	10.540753	20.430896	-991.258456	-973.434188
113.77	0.006519	0.075150	10.540961	19.916328	-974.627307	-968.868834
114.28	0.006520	0.075166	10.541458	20.999891	-988.098073	-957.925173
114.79	0.006520	0.075197	10.541787	20.110854	-960.037840	-950.680355
115.30	0.006520	0.075237	10.541969	20.446761	-963.583337	-946.686385
115.81	0.006520	0.075248	10.541892	19.836041	-951.296320	-948.376279
116.32	0.006520	0.075262	10.540900	19.682616	-970.646829	-970.203813
116.83	0.006520	0.075248	10.540679	18.612012	-951.089037	-975.056468
117.34	0.006524	0.075225	10.540984	18.953630	-951.920537	-968.348198
117.85	0.006524	0.075167	10.541020	17.812041	-924.814255	-967.559031
118.36	0.006524	0.075103	10.540905	18.060752	-933.190663	-970.087990
118.87	0.006524	0.075014	10.540830	16.974078	-909.902068	-971.734690
119.38	0.006523	0.074949	10.540671	17.448577	-924.487607	-975.228602
119.89	0.006520	0.074893	10.540781	16.701590	-904.761815	-972.814818
120.40	0.006520	0.074877	10.540988	16.708451	-900.146725	-968.261802
120.91	0.006520	0.074873	10.541166	18.024351	-926.328018	-964.340988
121.42	0.006520	0.074898	10.541026	20.238236	-980.522497	-967.423630
121.93	0.006520	0.074921	10.540990	23.653313	-1059.980890	-968.229210
122.44	0.006520	0.074941	10.541619	28.152490	-1149.043389	-954.390886
122.95	0.006519	0.074941	10.541932	30.973029	-1206.738108	-947.491169
123.46	0.006518	0.074929	10.541607	29.307087	-1175.884312	-954.641280
123.97	0.006516	0.074898	10.541671	27.574874	-1134.529502	-953.229645
124.48	0.006516	0.074882	10.542112	25.619755	-1079.364791	-943.539351
124.99	0.006510	0.074852	10.542462	24.913136	-1055.025235	-935.838073
125.50	0.006510	0.074850	10.542232	23.517028	-1028.189074	-940.895442
126.01	0.006510	0.074842	10.542219	22.257052	-999.486613	-941.183299
126.52	0.006509	0.074845	10.542922	22.272351	-983.614032	-925.706411
127.03	0.006509	0.074838	10.543118	22.236750	-978.278333	-921.398405
127.54	0.006502	0.074821	10.542619	21.922951	-982.564826	-932.377903
128.05	0.006501	0.074769	10.542448	21.598169	-979.037013	-936.144454
128.56	0.006498	0.074710	10.542603	20.421885	-948.373664	-932.724047
129.08	0.006495	0.074623	10.542803	19.567193	-924.089842	-928.327396
129.59	0.006520	0.074545	10.542377	18.710732	-914.207654	-937.707374
130.10	0.006497	0.074472	10.541959	18.321690	-914.880884	-946.892389
130.61	0.006509	0.074423	10.542477	18.089780	-897.611075	-935.511033
131.12	0.006495	0.074383	10.542768	17.893846	-886.376561	-929.096812
131.63	0.006509	0.074364	10.542966	17.806231	-879.794204	-924.741762
132.14	0.006501	0.074352	10.542976	17.691774	-876.927932	-924.520919
132.65	0.006513	0.074356	10.543713	17.713560	-860.428565	-908.303696
133.16	0.006503	0.074360	10.544446	17.730324	-843.908848	-892.177354
133.67	0.006517	0.074364	10.544013	17.748508	-854.335320	-901.723911
134.18	0.006507	0.074354	10.543785	17.699839	-858.473928	-906.740456
134.69	0.006518	0.074345	10.544423	17.657825	-842.786383	-892.698597
135.20	0.006511	0.074330	10.544300	17.644377	-845.314371	-895.405364
135.71	0.006526	0.074350	10.543457	17.776854	-867.797924	-913.943520
136.22	0.006536	0.074375	10.543387	17.894783	-872.132257	-915.488517
136.73	0.006749	0.074425	10.543572	18.162544	-874.021870	-911.411384
137.24	0.008267	0.074457	10.543126	18.312488	-887.758366	-921.222125
137.75	0.015140	0.074480	10.542728	18.744840	-906.905155	-929.992532
138.26	0.036178	0.074449	10.542662	18.595572	-904.987313	-931.440804
138.77	0.084887	0.074411	10.542679	18.414410	-900.419878	-931.061958
139.28	0.175653	0.074353	10.542888	18.135269	-889.183599	-926.473136
139.79	0.309927	0.074316	10.542401	17.959902	-896.375537	-937.184372
140.30	0.463298	0.074293	10.541437	17.849192	-916.050836	-958.383793
140.81	0.592895	0.074292	10.541042	17.761717	-923.150184	-967.076715
141.32	0.662482	0.074276	10.541069	17.684009	-920.736726	-966.480860
141.83	0.660387	0.074262	10.541850	17.702072	-903.135520	-949.294336
142.34	0.599178	0.074233	10.543053	17.695765	-875.240930	-922.824042
142.85	0.503331	0.074203	10.544110	17.583922	-848.302230	-899.582988
143.36	0.397705	0.074163	10.543998	17.391640	-846.459606	-902.047534
143.87	0.300626	0.074136	10.542857	17.262987	-869.806912	-927.143682
144.38	0.220804	0.074102	10.541908	17.099750	-887.941165	-948.026500
144.89	0.159490	0.074099	10.541296	17.085394	-901.725741	-961.490922
145.40	0.114160	0.074100	10.541052	17.089893	-907.459637	-966.861710
145.91	0.081213	0.074123	10.541402	17.456013	-907.805022	-959.151704
146.42	0.057217	0.074143	10.542581	17.582907	-883.543496	-933.222092
